timestamps,TP9,AF7,AF8,TP10,Right AUX,Marker0
1749790804.424,0.000,-28.809,-33.203,-17.090,0.000,0
1749790804.428,0.000,-25.879,-36.621,-16.113,0.000,0
1749790804.432,0.000,-28.809,-38.086,-10.254,0.000,0
1749790804.435,0.000,-30.762,-37.598,-13.672,0.000,0
1749790804.439,0.000,-32.715,-37.598,-19.531,0.000,0
1749790804.443,0.000,-27.344,-37.598,-20.020,0.000,0
1749790804.447,0.000,-25.391,-40.039,-16.113,0.000,0
1749790804.451,0.000,-30.273,-44.434,-14.648,0.000,0
1749790804.455,0.000,-32.227,-42.480,-15.625,0.000,0
1749790804.458,0.000,-32.227,-30.273,-8.789,0.000,0
1749790804.462,0.000,-31.250,-26.855,-7.812,0.000,0
1749790804.466,0.000,-30.273,-31.738,-9.277,0.000,0
1749790804.471,-12.207,-32.227,-32.227,-10.742,0.000,0
1749790804.475,-6.348,-32.227,-27.832,-12.207,0.000,0
1749790804.478,-2.441,-33.203,-24.902,-7.812,0.000,0
1749790804.482,-11.230,-35.156,-24.902,-13.184,0.000,0
1749790804.486,-4.395,-28.809,-20.508,-10.742,0.000,0
1749790804.490,-13.672,-28.809,-16.602,-5.371,0.000,0
1749790804.494,-26.367,-28.809,-16.113,-9.277,0.000,0
1749790804.498,-22.461,-26.367,-16.602,-6.348,0.000,0
1749790804.502,-28.320,-37.598,-30.273,-16.602,0.000,0
1749790804.505,-23.438,-42.480,-38.574,-20.996,0.000,0
1749790804.509,-15.137,-36.133,-35.645,-14.160,0.000,0
1749790804.513,-16.602,-34.668,-32.715,-12.695,0.000,0
1749790804.518,-21.484,-32.227,-32.227,-9.766,0.000,0
1749790804.522,-27.344,-31.250,-26.855,-6.348,0.000,0
1749790804.525,-26.855,-25.391,-24.902,-12.207,0.000,0
1749790804.529,-18.555,-24.414,-27.344,-21.484,0.000,0
1749790804.533,-23.926,-27.344,-30.273,-21.973,0.000,0
1749790804.537,-23.438,-21.973,-32.227,-22.949,0.000,0
1749790804.541,-13.184,-22.949,-33.203,-18.066,0.000,0
1749790804.545,-21.484,-27.344,-34.180,-13.184,0.000,0
1749790804.548,-16.113,-26.367,-33.691,-11.230,0.000,0
1749790804.552,-12.207,-28.320,-26.855,-14.160,0.000,0
1749790804.556,-14.160,-30.762,-28.320,-20.508,0.000,0
1749790804.560,-6.836,-30.762,-32.715,-12.695,0.000,0
1749790804.565,-8.301,-27.832,-31.738,-16.602,0.000,0
1749790804.568,-18.066,-26.855,-31.250,-24.902,0.000,0
1749790804.572,-16.113,-23.926,-29.297,-11.719,0.000,0
1749790804.576,-13.672,-26.367,-31.738,-12.207,0.000,0
1749790804.580,-10.742,-30.273,-34.668,-19.043,0.000,0
1749790804.584,-1.465,-23.926,-28.320,-15.625,0.000,0
1749790804.588,-4.883,-25.391,-29.785,-13.672,0.000,0
1749790804.592,-14.160,-31.738,-35.645,-18.555,0.000,0
1749790804.595,-16.602,-36.621,-37.598,-24.902,0.000,0
1749790804.599,-9.277,-41.016,-37.598,-26.855,0.000,0
1749790804.603,-22.949,-39.062,-35.645,-26.367,0.000,0
1749790804.607,-28.320,-39.062,-41.016,-27.832,0.000,0
1749790804.611,-12.207,-34.180,-38.574,-25.391,0.000,0
1749790804.615,-13.184,-32.715,-32.227,-19.531,0.000,0
1749790804.619,-11.719,-31.250,-33.691,-13.672,0.000,0
1749790804.623,-16.113,-26.855,-35.156,-16.602,0.000,0
1749790804.627,-21.484,-28.320,-36.133,-17.090,0.000,0
1749790804.631,-22.461,-29.785,-37.598,-18.555,0.000,0
1749790804.635,-26.855,-31.250,-39.062,-32.715,0.000,0
1749790804.638,-20.020,-33.691,-37.109,-30.762,0.000,0
1749790804.642,-21.973,-34.180,-35.645,-20.996,0.000,0
1749790804.646,-22.461,-31.250,-35.645,-19.531,0.000,0
1749790804.650,-19.531,-33.691,-38.574,-18.555,0.000,0
1749790804.654,-26.855,-32.227,-35.645,-22.461,0.000,0
1749790804.658,-24.414,-28.320,-32.227,-22.949,0.000,0
1749790804.662,-23.438,-35.645,-29.297,-13.184,0.000,0
1749790804.666,-25.391,-31.250,-31.250,-7.812,0.000,0
1749790804.670,-28.809,-24.414,-36.621,-21.973,0.000,0
1749790804.674,-28.320,-24.902,-41.016,-34.180,0.000,0
1749790804.677,-22.949,-20.508,-43.945,-31.250,0.000,0
1749790804.681,-24.414,-20.020,-39.551,-28.320,0.000,0
1749790804.685,-21.973,-19.531,-36.133,-29.297,0.000,0
1749790804.689,-26.367,-15.137,-41.016,-37.109,0.000,0
1749790804.693,-30.273,-9.277,-48.828,-38.574,0.000,0
1749790804.697,-27.832,-9.766,-49.316,-35.645,0.000,0
1749790804.701,-20.996,-7.812,-44.434,-29.785,0.000,0
1749790804.705,-18.555,-13.672,-41.016,-27.344,0.000,0
1749790804.709,-25.391,-24.902,-38.086,-31.250,0.000,0
1749790804.713,-27.344,-25.391,-38.574,-30.762,0.000,0
1749790804.717,-21.484,-23.926,-41.016,-30.762,0.000,0
1749790804.720,-18.066,-24.414,-41.016,-30.273,0.000,0
1749790804.724,-28.809,-25.879,-39.062,-32.227,0.000,0
1749790804.728,-22.461,-26.855,-38.086,-34.180,0.000,0
1749790804.732,-18.066,-27.832,-39.551,-33.691,0.000,0
1749790804.736,-22.461,-25.879,-36.621,-25.391,0.000,0
1749790804.740,-13.672,-19.043,-36.621,-20.020,0.000,0
1749790804.743,-12.695,-23.926,-41.992,-27.344,0.000,0
1749790804.747,-19.531,-30.762,-38.574,-30.273,0.000,0
1749790804.752,0.000,-30.762,-34.180,-29.785,0.000,0
1749790804.756,0.000,-33.691,-33.691,-29.785,0.000,0
1749790804.760,0.000,-33.203,-34.668,-31.250,0.000,0
1749790804.764,0.000,-33.203,-38.574,-34.668,0.000,0
1749790804.767,0.000,-29.297,-35.156,-28.320,0.000,0
1749790804.771,0.000,-25.879,-33.691,-25.879,0.000,0
1749790804.775,0.000,-25.391,-37.598,-29.297,0.000,0
1749790804.779,0.000,-24.902,-38.086,-29.785,0.000,0
1749790804.783,0.000,-23.438,-36.133,-25.879,0.000,0
1749790804.787,0.000,-24.902,-32.227,-22.949,0.000,0
1749790804.791,0.000,-25.391,-32.227,-27.344,0.000,0
1749790804.794,0.000,-25.879,-36.133,-25.879,0.000,0
1749790804.799,-26.367,-26.855,-37.598,-26.855,0.000,0
1749790804.803,-24.414,-26.855,-33.691,-25.879,0.000,0
1749790804.807,-22.461,-29.785,-33.203,-21.484,0.000,0
1749790804.811,-18.066,-29.297,-34.668,-21.484,0.000,0
1749790804.814,-18.555,-35.156,-32.715,-21.484,0.000,0
1749790804.818,-27.832,-36.133,-33.691,-22.461,0.000,0
1749790804.822,-26.855,-36.133,-35.645,-21.484,0.000,0
1749790804.826,-24.414,-36.133,-38.086,-22.461,0.000,0
1749790804.830,-25.391,-30.273,-40.039,-26.855,0.000,0
1749790804.834,-18.555,-32.227,-34.668,-29.785,0.000,0
1749790804.838,-17.578,-30.762,-31.738,-28.809,0.000,0
1749790804.841,-26.367,-26.855,-32.715,-29.785,0.000,0
1749790804.846,-22.461,-30.273,-28.320,-23.438,0.000,0
1749790804.850,-20.996,-30.273,-26.367,-20.508,0.000,0
1749790804.854,-20.020,-29.785,-30.762,-17.090,0.000,0
1749790804.858,-22.461,-28.809,-29.297,-19.043,0.000,0
1749790804.861,-29.297,-28.809,-29.785,-31.738,0.000,0
1749790804.865,-28.320,-31.738,-35.156,-32.715,0.000,0
1749790804.869,-31.250,-33.691,-33.203,-39.062,0.000,0
1749790804.873,-26.855,-31.250,-30.762,-30.762,0.000,0
1749790804.877,-25.391,-31.250,-31.738,-26.367,0.000,0
1749790804.881,-32.227,-25.391,-35.645,-43.457,0.000,0
1749790804.885,-27.344,-22.461,-34.668,-35.156,0.000,0
1749790804.888,-20.508,-27.344,-27.344,-19.531,0.000,0
1749790804.893,0.000,-30.273,-31.738,-21.484,0.000,0
1749790804.897,0.000,-32.227,-39.062,-22.949,0.000,0
1749790804.901,0.000,-28.320,-38.574,-12.207,0.000,0
1749790804.904,0.000,-27.832,-35.645,-1.953,0.000,0
1749790804.908,0.000,-27.832,-39.062,0.488,0.000,0
1749790804.912,0.000,-30.273,-40.039,2.930,0.000,0
1749790804.916,0.000,-33.203,-34.180,9.766,0.000,0
1749790804.920,0.000,-32.227,-36.133,14.648,0.000,0
1749790804.924,0.000,-29.785,-40.039,12.695,0.000,0
1749790804.928,0.000,-29.297,-37.598,12.695,0.000,0
1749790804.931,0.000,-33.691,-36.133,12.695,0.000,0
1749790804.935,0.000,-29.297,-38.086,11.230,0.000,0
1749790804.940,8.301,-21.973,-36.621,5.859,0.000,0
1749790804.944,2.930,-23.438,-35.645,-1.953,0.000,0
1749790804.948,6.348,-23.926,-36.133,-5.371,0.000,0
1749790804.951,12.207,-23.438,-36.133,-8.301,0.000,0
1749790804.955,11.230,-22.461,-39.062,-7.812,0.000,0
1749790804.959,5.859,-21.484,-37.598,-3.906,0.000,0
1749790804.963,4.395,-23.926,-34.180,0.000,0.000,0
1749790804.967,14.160,-23.438,-33.691,1.465,0.000,0
1749790804.971,20.020,-21.484,-34.668,-0.488,0.000,0
1749790804.974,0.000,-22.461,-36.621,-3.906,0.000,0
1749790804.978,-4.395,-24.414,-39.551,-2.930,0.000,0
1749790804.982,8.789,-21.973,-38.086,-2.930,0.000,0
1749790804.987,8.301,-20.508,-36.621,-6.348,0.000,0
1749790804.990,14.160,-19.531,-32.227,-4.395,0.000,0
1749790804.994,2.441,-22.949,-35.156,-6.348,0.000,0
1749790804.998,-13.672,-28.809,-43.945,-13.672,0.000,0
1749790805.002,-5.371,-27.344,-41.016,-9.766,0.000,0
1749790805.006,-12.695,-26.855,-37.598,-11.230,0.000,0
1749790805.010,-7.812,-27.344,-32.227,-12.207,0.000,0
1749790805.014,3.906,-32.227,-34.180,-9.277,0.000,0
1749790805.017,-4.395,-34.180,-40.527,-13.184,0.000,0
1749790805.021,-10.742,-30.273,-37.598,-16.602,0.000,0
1749790805.025,-9.766,-26.367,-33.203,-21.484,0.000,0
1749790805.029,-4.883,-27.832,-33.691,-21.973,0.000,0
1749790805.033,-5.371,-30.273,-34.668,-10.742,0.000,0
1749790805.037,-5.859,-25.391,-36.621,-11.230,0.000,0
1749790805.041,-5.371,-28.320,-34.668,-17.090,0.000,0
1749790805.045,-10.254,-27.344,-33.203,-15.625,0.000,0
1749790805.049,-6.348,-21.484,-35.645,-22.461,0.000,0
1749790805.053,-4.883,-22.949,-33.691,-25.879,0.000,0
1749790805.056,-10.742,-23.438,-29.297,-18.066,0.000,0
1749790805.060,-11.719,-24.902,-33.203,-15.625,0.000,0
1749790805.064,-6.348,-26.367,-39.062,-15.137,0.000,0
1749790805.068,-7.324,-27.344,-34.668,-20.508,0.000,0
1749790805.072,-4.395,-26.855,-32.227,-22.949,0.000,0
1749790805.076,-7.324,-29.297,-34.180,-21.973,0.000,0
1749790805.080,-22.949,-31.738,-41.016,-22.461,0.000,0
1749790805.084,-26.855,-33.691,-43.457,-23.438,0.000,0
1749790805.088,-27.344,-36.621,-46.875,-27.832,0.000,0
1749790805.092,-31.250,-34.668,-48.340,-28.320,0.000,0
1749790805.096,-24.902,-32.715,-41.504,-29.785,0.000,0
1749790805.099,-1.953,-22.949,-37.109,-20.020,0.000,0
1749790805.103,-6.348,-18.066,-35.156,-12.695,0.000,0
1749790805.107,-24.414,-23.438,-33.691,-17.090,0.000,0
1749790805.111,-21.484,-27.344,-31.250,-20.996,0.000,0
1749790805.115,-21.484,-27.832,-35.156,-23.438,0.000,0
1749790805.119,-17.090,-30.273,-37.598,-20.508,0.000,0
1749790805.122,-19.043,-34.668,-34.668,-23.926,0.000,0
1749790805.127,-22.461,-33.691,-33.691,-25.879,0.000,0
1749790805.131,-15.137,-31.250,-29.785,-20.508,0.000,0
1749790805.135,-20.508,-29.297,-32.715,-22.949,0.000,0
1749790805.139,-24.414,-29.297,-37.598,-27.344,0.000,0
1749790805.143,-14.160,-30.762,-30.273,-27.832,0.000,0
1749790805.146,-14.160,-30.273,-27.832,-23.926,0.000,0
1749790805.150,-15.137,-27.832,-33.691,-20.508,0.000,0
1749790805.154,-16.602,-28.320,-33.203,-19.531,0.000,0
1749790805.158,-16.113,-28.809,-29.785,-20.020,0.000,0
1749790805.162,-5.371,-32.715,-29.297,-17.578,0.000,0
1749790805.166,-8.789,-31.250,-33.203,-17.578,0.000,0
1749790805.170,-15.625,-24.902,-35.645,-19.043,0.000,0
1749790805.174,-11.230,-21.973,-34.668,-16.113,0.000,0
1749790805.178,-5.371,-20.996,-34.180,-11.230,0.000,0
1749790805.182,-9.766,-20.508,-32.227,-5.371,0.000,0
1749790805.186,-21.973,-28.809,-31.250,-8.789,0.000,0
1749790805.190,-10.254,-29.785,-26.367,5.371,0.000,0
1749790805.193,-4.883,-13.672,-29.785,-3.418,0.000,0
1749790805.197,-25.879,-10.742,-41.016,-35.645,0.000,0
1749790805.201,-32.715,-17.578,-45.410,-36.133,0.000,0
1749790805.205,-26.367,-12.695,-46.875,-35.156,0.000,0
1749790805.209,-23.926,-7.812,-46.875,-33.203,0.000,0
1749790805.213,-28.320,-10.742,-41.992,-32.715,0.000,0
1749790805.217,-35.645,-10.742,-43.945,-41.992,0.000,0
1749790805.221,-30.762,-6.836,-46.875,-43.945,0.000,0
1749790805.225,-30.273,-8.301,-43.457,-42.480,0.000,0
1749790805.229,-32.227,-10.742,-39.551,-46.875,0.000,0
1749790805.233,-30.273,-9.277,-40.527,-44.434,0.000,0
1749790805.237,-31.250,-7.324,-42.969,-38.086,0.000,0
1749790805.240,-26.367,-9.277,-41.992,-39.551,0.000,0
1749790805.244,-23.926,-15.625,-40.039,-37.598,0.000,0
1749790805.248,-28.320,-19.043,-44.434,-36.133,0.000,0
1749790805.252,-29.785,-19.531,-41.992,-39.551,0.000,0
1749790805.256,-23.926,-21.484,-38.574,-38.574,0.000,0
1749790805.260,-25.391,-24.414,-42.969,-41.016,0.000,0
1749790805.264,-39.062,-25.879,-45.898,-41.504,0.000,0
1749790805.268,0.000,-26.855,-46.875,-39.062,0.000,0
1749790805.272,0.000,-29.297,-41.016,-41.992,0.000,0
1749790805.276,0.000,-25.879,-35.645,-42.480,0.000,0
1749790805.280,0.000,-25.391,-38.086,-40.039,0.000,0
1749790805.283,0.000,-26.855,-37.109,-38.574,0.000,0
1749790805.287,0.000,-23.926,-31.250,-37.109,0.000,0
1749790805.291,0.000,-21.973,-34.668,-36.621,0.000,0
1749790805.295,0.000,-28.809,-40.527,-40.527,0.000,0
1749790805.299,0.000,-32.227,-36.133,-40.039,0.000,0
1749790805.303,0.000,-29.785,-30.273,-35.645,0.000,0
1749790805.307,0.000,-35.645,-33.203,-41.016,0.000,0
1749790805.310,0.000,-35.645,-34.668,-43.457,0.000,0
1749790805.315,-34.180,-33.691,-33.691,-44.922,0.000,0
1749790805.319,-23.926,-31.738,-30.762,-42.969,0.000,0
1749790805.323,-28.809,-29.785,-34.180,-45.410,0.000,0
1749790805.326,-37.598,-30.762,-38.574,-46.875,0.000,0
1749790805.330,-34.180,-28.320,-36.133,-44.922,0.000,0
1749790805.334,-27.832,-24.902,-35.645,-43.945,0.000,0
1749790805.338,-28.320,-21.484,-33.691,-40.039,0.000,0
1749790805.342,-23.926,-27.344,-34.668,-38.086,0.000,0
1749790805.346,-23.438,-30.762,-35.156,-35.645,0.000,0
1749790805.350,-24.902,-32.227,-36.133,-40.039,0.000,0
1749790805.353,-25.879,-33.203,-34.668,-45.410,0.000,0
1749790805.357,-24.902,-29.785,-31.738,-43.945,0.000,0
1749790805.362,-16.113,-31.738,-31.250,-42.480,0.000,0
1749790805.366,-15.137,-28.809,-28.809,-41.992,0.000,0
1749790805.369,-33.203,-25.879,-32.715,-43.457,0.000,0
1749790805.373,-35.156,-22.461,-35.156,-44.434,0.000,0
1749790805.377,-26.855,-24.414,-33.691,-40.527,0.000,0
1749790805.381,-29.297,-26.367,-35.645,-39.551,0.000,0
1749790805.385,-38.086,-25.879,-36.621,-43.457,0.000,0
1749790805.389,-39.551,-24.414,-36.621,-43.457,0.000,0
1749790805.393,-41.016,-26.367,-35.645,-44.922,0.000,0
1749790805.396,-47.852,-27.832,-36.133,-49.316,0.000,0
1749790805.400,-49.316,-24.902,-34.180,-45.898,0.000,0
1749790805.404,-47.852,-24.902,-34.180,-46.875,0.000,0
1749790805.409,-44.922,-26.855,-32.227,-45.898,0.000,0
1749790805.412,-41.992,-29.297,-34.180,-43.945,0.000,0
1749790805.416,-43.457,-28.809,-36.133,-51.758,0.000,0
1749790805.420,-42.480,-24.902,-33.203,-42.969,0.000,0
1749790805.424,-33.203,-19.043,-26.855,-27.344,0.000,0
1749790805.428,-35.156,-18.066,-21.973,-28.320,0.000,0
1749790805.432,-40.527,-21.973,-29.785,-39.062,0.000,0
1749790805.436,-38.086,-27.832,-33.203,-38.086,0.000,0
1749790805.439,-41.504,-28.809,-33.203,-38.574,0.000,0
1749790805.443,-43.945,-25.391,-36.621,-45.410,0.000,0
1749790805.447,-36.133,-27.344,-39.062,-46.387,0.000,0
1749790805.451,-42.969,-29.785,-39.062,-48.340,0.000,0
1749790805.455,-51.270,-32.227,-38.574,-45.410,0.000,0
1749790805.459,-47.363,-32.715,-37.598,-43.945,0.000,0
1749790805.463,-48.828,-28.809,-35.645,-44.922,0.000,0
1749790805.467,-55.176,-30.273,-38.086,-46.387,0.000,0
1749790805.471,-57.129,-27.344,-38.574,-45.898,0.000,0
1749790805.475,-60.547,-26.855,-35.645,-50.293,0.000,0
1749790805.478,-58.105,-29.785,-34.668,-51.758,0.000,0
1749790805.482,-48.828,-27.832,-37.109,-43.457,0.000,0
1749790805.486,-48.828,-32.227,-37.598,-44.922,0.000,0
1749790805.490,-47.363,-30.273,-35.156,-40.527,0.000,0
1749790805.494,-53.223,-25.391,-36.621,-38.574,0.000,0
1749790805.498,-53.223,-24.414,-38.086,-41.016,0.000,0
1749790805.498,-53.223,-24.414,-38.086,-41.016,0.000,0
1749790805.502,-52.734,-24.414,-38.574,-39.062,0.000,0
1749790805.506,-57.129,-25.391,-34.668,-33.203,0.000,0
1749790805.510,-45.898,-24.414,-33.203,-36.133,0.000,0
1749790805.514,-42.480,-24.902,-35.156,-40.527,0.000,0
1749790805.518,-43.945,-25.391,-29.785,-33.691,0.000,0
1749790805.522,-45.410,-28.320,-27.344,-36.133,0.000,0
1749790805.526,-53.223,-31.250,-30.762,-40.039,0.000,0
1749790805.529,-46.875,-31.250,-35.156,-44.434,0.000,0
1749790805.533,-44.434,-32.715,-34.668,-45.410,0.000,0
1749790805.537,-51.758,-31.738,-37.109,-45.410,0.000,0
1749790805.541,-42.969,-25.391,-41.504,-43.457,0.000,0
1749790805.545,-32.715,-28.809,-39.551,-36.621,0.000,0
1749790805.550,-46.387,-40.039,-33.203,-41.504,0.000,0
1749790805.554,-65.430,-41.504,-24.902,-46.875,0.000,0
1749790805.557,-68.359,-43.945,-20.508,-39.551,0.000,0
1749790805.561,-57.617,-48.828,-24.414,-35.156,0.000,0
1749790805.565,-57.617,-49.316,-27.344,-39.551,0.000,0
1749790805.569,-68.848,-54.688,-22.461,-40.039,0.000,0
1749790805.573,-64.941,-57.617,-20.020,-32.227,0.000,0
1749790805.577,-57.617,-57.129,-21.484,-30.273,0.000,0
1749790805.581,-49.805,-56.152,-20.996,-34.180,0.000,0
1749790805.584,-53.711,-50.293,-18.066,-36.621,0.000,0
1749790805.588,-62.012,-45.410,-21.973,-41.016,0.000,0
1749790805.592,-61.523,-45.898,-24.902,-41.016,0.000,0
1749790805.597,-53.223,-41.992,-20.996,-31.738,0.000,0
1749790805.601,-41.992,-34.668,-22.949,-32.227,0.000,0
1749790805.604,-43.457,-37.109,-23.438,-41.016,0.000,0
1749790805.608,-52.246,-37.109,-22.949,-43.457,0.000,0
1749790805.612,-43.457,-36.133,-29.785,-45.898,0.000,0
1749790805.616,-52.734,-45.898,-36.133,-49.805,0.000,0
1749790805.620,-67.383,-42.969,-34.180,-50.781,0.000,0
1749790805.624,-57.617,-33.203,-36.621,-45.898,0.000,0
1749790805.628,-55.176,-41.504,-42.969,-46.387,0.000,0
1749790805.631,-60.547,-45.410,-41.016,-51.270,0.000,0
1749790805.635,-60.059,-43.457,-37.598,-50.781,0.000,0
1749790805.639,-57.617,-43.945,-32.715,-44.922,0.000,0
1749790805.644,-54.199,-43.945,-30.762,-42.480,0.000,0
1749790805.647,-49.805,-42.480,-35.645,-48.340,0.000,0
1749790805.651,-54.199,-41.992,-28.809,-50.293,0.000,0
1749790805.655,-61.523,-40.039,-24.414,-46.875,0.000,0
1749790805.659,-63.965,-40.039,-33.203,-51.758,0.000,0
1749790805.663,-62.500,-35.645,-36.133,-53.711,0.000,0
1749790805.667,-56.152,-25.391,-38.086,-51.270,0.000,0
1749790805.671,-52.246,-28.809,-38.574,-50.781,0.000,0
1749790805.674,-68.359,-31.738,-33.691,-53.223,0.000,0
1749790805.678,-81.055,-26.855,-28.320,-56.641,0.000,0
1749790805.682,-79.590,-24.414,-28.320,-57.617,0.000,0
1749790805.686,-71.777,-21.484,-25.879,-53.223,0.000,0
1749790805.690,-68.848,-25.391,-23.926,-50.781,0.000,0
1749790805.694,-72.266,-28.320,-25.879,-51.270,0.000,0
1749790805.698,-67.871,-26.367,-29.297,-42.969,0.000,0
1749790805.702,-70.801,-26.855,-32.715,-46.387,0.000,0
1749790805.706,-65.430,-21.973,-30.762,-51.758,0.000,0
1749790805.710,-58.105,-21.484,-32.227,-45.410,0.000,0
1749790805.714,-57.129,-19.043,-34.180,-45.410,0.000,0
1749790805.717,-53.223,-19.043,-33.203,-47.852,0.000,0
1749790805.721,-48.828,-18.066,-37.109,-43.945,0.000,0
1749790805.725,-42.480,-19.043,-43.945,-38.574,0.000,0
1749790805.729,-52.246,-20.020,-33.691,-48.340,0.000,0
1749790805.733,-72.754,-21.484,-27.832,-63.477,0.000,0
1749790805.737,-75.684,-24.414,-29.297,-62.500,0.000,0
1749790805.741,-64.453,-20.508,-25.879,-58.594,0.000,0
1749790805.745,-70.801,-18.555,-29.297,-64.941,0.000,0
1749790805.749,-73.242,-20.020,-31.738,-64.453,0.000,0
1749790805.753,-81.055,-27.344,-28.809,-64.941,0.000,0
1749790805.757,-90.820,-29.785,-29.785,-64.941,0.000,0
1749790805.760,-83.984,-29.785,-31.250,-61.523,0.000,0
1749790805.764,-76.660,-30.273,-30.273,-61.035,0.000,0
1749790805.768,-76.172,-29.297,-36.133,-62.500,0.000,0
1749790805.772,-84.473,-26.367,-37.109,-65.918,0.000,0
1749790805.776,-79.102,-19.043,-32.715,-67.383,0.000,0
1749790805.780,-69.336,-15.137,-30.273,-62.012,0.000,0
1749790805.784,-66.895,-16.602,-32.227,-61.523,0.000,0
1749790805.788,-67.383,-17.578,-31.250,-62.988,0.000,0
1749790805.792,-64.453,-14.648,-23.926,-58.105,0.000,0
1749790805.796,-58.594,-18.555,-27.344,-60.547,0.000,0
1749790805.800,-54.199,-23.438,-37.109,-61.523,0.000,0
1749790805.803,-54.688,-20.996,-38.574,-56.152,0.000,0
1749790805.807,-53.711,-20.020,-32.715,-59.082,0.000,0
1749790805.811,-57.129,-20.508,-28.809,-53.711,0.000,0
1749790805.815,-58.594,-19.043,-29.785,-51.270,0.000,0
1749790805.819,-55.176,-21.973,-29.785,-54.688,0.000,0
1749790805.823,-50.781,-23.926,-28.809,-52.734,0.000,0
1749790805.827,-45.898,-20.020,-30.273,-52.246,0.000,0
1749790805.831,-51.270,-18.066,-35.156,-49.805,0.000,0
1749790805.835,-60.059,-18.555,-42.480,-48.828,0.000,0
1749790805.839,-53.223,-15.625,-42.969,-51.270,0.000,0
1749790805.842,-49.316,-20.020,-39.551,-51.758,0.000,0
1749790805.846,-54.688,-26.367,-37.109,-48.828,0.000,0
1749790805.850,-57.129,-22.461,-36.133,-50.293,0.000,0
1749790805.854,-65.430,-22.461,-36.133,-56.641,0.000,0
1749790805.858,-63.965,-26.855,-39.062,-59.570,0.000,0
1749790805.862,-66.406,-24.902,-44.922,-59.570,0.000,0
1749790805.866,-59.570,-21.484,-39.062,-57.129,0.000,0
1749790805.869,-47.852,-20.508,-32.227,-52.734,0.000,0
1749790805.873,-58.105,-18.555,-35.645,-57.129,0.000,0
1749790805.878,-73.242,-24.414,-39.062,-67.383,0.000,0
1749790805.882,-70.312,-26.367,-36.621,-69.336,0.000,0
1749790805.886,-68.848,-22.949,-29.297,-63.965,0.000,0
1749790805.889,-66.406,-20.020,-25.879,-64.941,0.000,0
1749790805.893,-65.430,-20.508,-29.297,-64.453,0.000,0
1749790805.897,-58.594,-25.879,-34.668,-59.570,0.000,0
1749790805.901,-56.152,-25.879,-35.645,-60.059,0.000,0
1749790805.905,-65.430,-21.484,-32.715,-60.547,0.000,0
1749790805.909,-63.965,-20.020,-32.227,-56.641,0.000,0
1749790805.913,-55.176,-23.926,-32.715,-54.199,0.000,0
1749790805.916,-59.082,-24.414,-30.762,-50.293,0.000,0
1749790805.920,-60.547,-18.066,-27.344,-52.734,0.000,0
1749790805.925,-57.617,-17.090,-23.438,-52.734,0.000,0
1749790805.929,-66.895,-16.602,-26.855,-55.176,0.000,0
1749790805.933,-64.453,-10.742,-24.902,-56.152,0.000,0
1749790805.936,-61.035,-15.137,-24.902,-56.641,0.000,0
1749790805.940,-56.641,-21.484,-31.738,-60.547,0.000,0
1749790805.944,-56.152,-21.973,-33.203,-63.477,0.000,0
1749790805.948,-66.406,-20.020,-32.227,-61.523,0.000,0
1749790805.952,-61.523,-18.555,-32.227,-57.617,0.000,0
1749790805.956,-55.664,-19.043,-31.250,-60.059,0.000,0
1749790805.960,-55.664,-16.602,-32.715,-57.617,0.000,0
1749790805.963,-46.875,-17.090,-36.133,-54.688,0.000,0
1749790805.967,-39.062,-12.695,-39.551,-56.152,0.000,0
1749790805.972,-48.340,-11.230,-31.738,-58.594,0.000,0
1749790805.976,-61.523,-17.578,-27.344,-57.617,0.000,0
1749790805.979,-58.594,-20.996,-29.785,-56.641,0.000,0
1749790805.983,-47.852,-22.461,-31.250,-52.734,0.000,0
1749790805.987,-48.340,-18.555,-30.762,-48.340,0.000,0
1749790805.991,-55.664,-18.555,-27.344,-52.734,0.000,0
1749790805.995,-50.293,-18.555,-30.273,-52.246,0.000,0
1749790805.999,-43.945,-19.043,-31.250,-46.387,0.000,0
1749790806.003,-41.992,-19.531,-26.367,-43.457,0.000,0
1749790806.007,-44.434,-19.043,-24.902,-43.945,0.000,0
1749790806.010,-46.387,-22.949,-25.391,-47.363,0.000,0
1749790806.014,-43.945,-23.926,-24.902,-41.016,0.000,0
1749790806.019,-40.527,-20.996,-26.367,-40.527,0.000,0
1749790806.023,-41.016,-22.461,-29.297,-47.363,0.000,0
1749790806.026,-43.457,-20.508,-29.297,-48.340,0.000,0
1749790806.030,-40.039,-20.020,-32.227,-42.969,0.000,0
1749790806.034,-43.945,-21.973,-31.738,-40.527,0.000,0
1749790806.038,-40.039,-15.137,-25.879,-41.016,0.000,0
1749790806.042,-40.527,-10.254,-23.926,-41.504,0.000,0
1749790806.046,-57.617,-16.602,-26.855,-43.457,0.000,0
1749790806.050,-46.387,-16.602,-28.809,-39.551,0.000,0
1749790806.053,-44.434,-10.254,-28.809,-42.480,0.000,0
1749790806.057,-50.781,-11.230,-29.297,-48.828,0.000,0
1749790806.061,-42.480,-12.207,-29.785,-41.504,0.000,0
1749790806.066,-41.016,-3.418,-27.832,-37.109,0.000,0
1749790806.069,-40.527,-3.906,-29.297,-40.039,0.000,0
1749790806.073,-44.922,-12.207,-33.691,-45.898,0.000,0
1749790806.077,-49.805,-13.672,-38.574,-46.387,0.000,0
1749790806.081,-49.805,-15.137,-41.504,-44.434,0.000,0
1749790806.085,-43.457,-19.531,-32.715,-32.715,0.000,0
1749790806.089,-35.645,-11.719,-30.273,-24.414,0.000,0
1749790806.093,-48.340,-5.371,-40.039,-41.504,0.000,0
1749790806.096,-41.504,-3.906,-43.457,-56.641,0.000,0
1749790806.100,-43.945,3.418,-45.898,-62.012,0.000,0
1749790806.104,-65.430,8.301,-48.340,-67.871,0.000,0
1749790806.108,-50.293,14.160,-50.293,-70.801,0.000,0
1749790806.112,-45.410,21.484,-52.246,-74.707,0.000,0
1749790806.116,-52.246,23.926,-51.758,-76.660,0.000,0
1749790806.120,-47.852,26.855,-51.270,-68.848,0.000,0
1749790806.124,-46.875,25.391,-50.293,-67.383,0.000,0
1749790806.128,-46.875,24.414,-45.898,-69.336,0.000,0
1749790806.132,-38.086,22.461,-45.410,-63.965,0.000,0
1749790806.136,-37.598,18.066,-43.457,-59.082,0.000,0
1749790806.139,-40.527,15.625,-38.574,-55.664,0.000,0
1749790806.143,-43.457,13.184,-37.109,-58.105,0.000,0
1749790806.147,-43.457,10.254,-37.598,-56.152,0.000,0
1749790806.151,-41.016,8.789,-35.645,-50.781,0.000,0
1749790806.155,-40.527,6.348,-36.621,-48.828,0.000,0
1749790806.159,-39.062,4.395,-38.086,-46.387,0.000,0
1749790806.163,-31.738,4.883,-34.668,-42.969,0.000,0
1749790806.167,-22.949,6.348,-33.203,-40.527,0.000,0
1749790806.171,-28.320,5.371,-33.203,-41.992,0.000,0
1749790806.175,-33.203,5.371,-32.715,-38.574,0.000,0
1749790806.178,-38.574,0.977,-36.133,-41.504,0.000,0
1749790806.182,-36.133,-4.883,-36.133,-42.480,0.000,0
1749790806.186,-33.203,-2.441,-32.715,-38.086,0.000,0
1749790806.190,-36.621,-3.418,-31.250,-41.504,0.000,0
1749790806.194,-32.227,-1.953,-31.250,-40.527,0.000,0
1749790806.198,-33.691,-1.465,-36.621,-40.527,0.000,0
1749790806.202,-28.320,-4.883,-40.527,-37.109,0.000,0
1749790806.206,-26.855,-7.812,-39.062,-34.668,0.000,0
1749790806.210,-34.180,-6.836,-38.086,-31.738,0.000,0
1749790806.214,-39.062,-4.883,-37.598,-28.320,0.000,0
1749790806.217,-33.691,-6.836,-38.086,-28.320,0.000,0
1749790806.221,-34.668,-8.789,-36.621,-29.297,0.000,0
1749790806.225,-34.668,-7.812,-32.715,-27.344,0.000,0
1749790806.229,-21.973,-13.184,-32.715,-25.391,0.000,0
1749790806.233,-23.438,-14.648,-34.180,-25.879,0.000,0
1749790806.237,-33.203,-15.137,-37.598,-29.297,0.000,0
1749790806.241,-37.598,-15.137,-33.691,-36.621,0.000,0
1749790806.245,-31.250,-11.230,-27.832,-36.133,0.000,0
1749790806.248,-29.785,-12.695,-31.250,-32.227,0.000,0
1749790806.253,0.000,-12.695,-32.715,-32.227,0.000,0
1749790806.257,0.000,-11.719,-28.320,-32.715,0.000,0
1749790806.261,0.000,-17.090,-29.297,-34.180,0.000,0
1749790806.265,0.000,-16.113,-27.344,-33.203,0.000,0
1749790806.268,0.000,-9.766,-20.996,-31.738,0.000,0
1749790806.272,0.000,-16.113,-27.832,-27.832,0.000,0
1749790806.276,0.000,-15.137,-30.273,-24.902,0.000,0
1749790806.280,0.000,-10.742,-32.715,-30.762,0.000,0
1749790806.284,0.000,-11.719,-34.668,-36.621,0.000,0
1749790806.288,0.000,-13.672,-33.203,-35.156,0.000,0
1749790806.292,0.000,-10.254,-30.273,-31.250,0.000,0
1749790806.295,0.000,-8.301,-29.297,-31.250,0.000,0
1749790806.299,-33.203,-12.207,-29.785,-28.320,0.000,0
1749790806.303,-25.391,-12.207,-29.785,-25.391,0.000,0
1749790806.307,-25.879,-13.184,-27.344,-30.273,0.000,0
1749790806.311,-26.367,-16.602,-23.926,-31.738,0.000,0
1749790806.315,-27.344,-17.090,-24.414,-26.855,0.000,0
1749790806.318,-24.902,-12.695,-27.344,-26.855,0.000,0
1749790806.322,-20.508,-13.672,-22.949,-25.879,0.000,0
1749790806.326,-29.297,-13.672,-20.508,-23.438,0.000,0
1749790806.330,-30.762,-13.672,-21.973,-21.973,0.000,0
1749790806.334,-28.809,-14.648,-20.996,-20.508,0.000,0
1749790806.338,-32.227,-13.672,-23.926,-21.973,0.000,0
1749790806.342,-32.715,-15.625,-23.926,-23.438,0.000,0
1749790806.346,-23.926,-13.672,-26.367,-25.391,0.000,0
1749790806.350,-25.879,-13.672,-29.785,-29.297,0.000,0
1749790806.354,-38.574,-18.066,-27.344,-36.621,0.000,0
1749790806.358,-43.945,-18.555,-28.320,-38.086,0.000,0
1749790806.362,-38.086,-17.578,-30.762,-34.668,0.000,0
1749790806.365,-37.109,-21.484,-30.762,-37.598,0.000,0
1749790806.369,-35.156,-24.414,-28.320,-38.086,0.000,0
1749790806.373,-34.180,-22.949,-25.391,-38.574,0.000,0
1749790806.377,-30.762,-25.391,-22.461,-39.551,0.000,0
1749790806.381,-28.809,-21.973,-28.320,-40.527,0.000,0
1749790806.385,-29.785,-16.602,-30.273,-34.180,0.000,0
1749790806.389,-24.902,-15.625,-26.367,-32.715,0.000,0
1749790806.393,-29.785,-17.090,-32.227,-38.086,0.000,0
1749790806.397,-36.621,-20.020,-35.156,-36.133,0.000,0
1749790806.401,-33.691,-19.043,-34.668,-37.598,0.000,0
1749790806.405,-26.367,-18.066,-32.227,-37.598,0.000,0
1749790806.408,-34.668,-20.996,-28.320,-38.086,0.000,0
1749790806.412,-37.109,-20.996,-26.855,-36.621,0.000,0
1749790806.416,-25.391,-20.508,-28.320,-29.785,0.000,0
1749790806.420,-24.902,-19.531,-31.250,-25.391,0.000,0
1749790806.424,-23.926,-17.090,-26.367,-24.902,0.000,0
1749790806.428,-25.391,-20.508,-26.367,-31.738,0.000,0
1749790806.432,-26.855,-22.461,-34.668,-33.203,0.000,0
1749790806.436,-21.973,-24.414,-38.574,-30.762,0.000,0
1749790806.440,-17.090,-19.043,-35.156,-32.227,0.000,0
1749790806.444,-19.531,-20.020,-37.109,-35.645,0.000,0
1749790806.448,-23.926,-27.344,-40.527,-41.992,0.000,0
1749790806.451,-16.602,-23.438,-40.527,-38.574,0.000,0
1749790806.455,-10.254,-23.438,-40.039,-30.762,0.000,0
1749790806.459,-14.648,-21.484,-36.133,-30.273,0.000,0
1749790806.463,-23.926,-23.926,-37.109,-37.109,0.000,0
1749790806.467,-18.066,-28.809,-34.668,-34.180,0.000,0
1749790806.471,-11.230,-26.855,-31.738,-27.344,0.000,0
1749790806.475,-16.113,-23.438,-37.598,-29.297,0.000,0
1749790806.479,-20.508,-22.949,-37.109,-30.273,0.000,0
1749790806.482,-20.020,-24.414,-35.645,-28.809,0.000,0
1749790806.487,-18.066,-26.855,-35.645,-28.809,0.000,0
1749790806.491,-18.066,-29.297,-34.180,-25.391,0.000,0
1749790806.494,-24.414,-31.738,-37.598,-29.297,0.000,0
1749790806.498,-26.367,-33.203,-38.574,-29.785,0.000,0
1749790806.502,-23.438,-29.785,-36.621,-25.879,0.000,0
1749790806.506,-21.973,-27.344,-26.855,-25.879,0.000,0
1749790806.510,-20.996,-25.391,-24.414,-23.438,0.000,0
1749790806.514,-21.484,-23.438,-29.785,-19.531,0.000,0
1749790806.518,-11.230,-26.367,-32.715,-22.461,0.000,0
1749790806.521,-12.207,-25.391,-34.180,-25.879,0.000,0
1749790806.525,-16.602,-24.414,-33.203,-22.949,0.000,0
1749790806.529,-4.395,-25.879,-32.227,-22.461,0.000,0
1749790806.534,-8.301,-27.832,-31.738,-26.855,0.000,0
1749790806.537,-10.742,-27.832,-30.273,-25.391,0.000,0
1749790806.541,-14.648,-24.414,-30.762,-26.855,0.000,0
1749790806.545,-23.438,-26.367,-30.762,-32.715,0.000,0
1749790806.549,-15.625,-22.949,-26.855,-26.367,0.000,0
1749790806.553,-17.090,-25.391,-22.949,-21.973,0.000,0
1749790806.557,-15.137,-31.738,-23.438,-15.625,0.000,0
1749790806.561,-7.812,-30.762,-29.785,-14.648,0.000,0
1749790806.564,-20.508,-20.996,-33.691,-26.367,0.000,0
1749790806.568,-26.855,-12.207,-34.180,-32.715,0.000,0
1749790806.572,-13.184,-4.883,-28.320,-31.250,0.000,0
1749790806.576,-7.324,5.859,-24.902,-24.902,0.000,0
1749790806.580,-12.207,7.324,-32.715,-29.785,0.000,0
1749790806.584,-16.602,2.441,-36.621,-39.551,0.000,0
1749790806.588,-15.625,6.348,-36.133,-39.062,0.000,0
1749790806.592,-16.113,7.812,-41.016,-43.457,0.000,0
1749790806.596,-8.789,14.160,-46.387,-48.828,0.000,0
1749790806.600,0.488,20.996,-43.457,-41.016,0.000,0
1749790806.603,-0.977,20.996,-38.086,-34.668,0.000,0
1749790806.607,0.000,21.973,-35.156,-30.273,0.000,0
1749790806.611,-0.488,18.555,-34.180,-25.879,0.000,0
1749790806.615,-0.488,10.742,-34.668,-31.250,0.000,0
1749790806.619,-1.465,5.371,-34.180,-30.273,0.000,0
1749790806.623,-3.418,2.930,-32.227,-30.273,0.000,0
1749790806.627,3.906,2.930,-29.297,-32.715,0.000,0
1749790806.631,-1.465,0.488,-35.645,-33.203,0.000,0
1749790806.635,-9.277,5.859,-33.203,-33.203,0.000,0
1749790806.639,-8.301,10.742,-31.250,-34.180,0.000,0
1749790806.643,-7.812,2.441,-38.574,-36.133,0.000,0
1749790806.647,-8.301,-6.348,-38.086,-36.133,0.000,0
1749790806.651,-9.766,-8.789,-35.645,-35.156,0.000,0
1749790806.654,-6.348,-9.277,-34.668,-32.227,0.000,0
1749790806.658,-2.930,-12.695,-33.203,-34.180,0.000,0
1749790806.662,-6.348,-10.254,-35.156,-31.250,0.000,0
1749790806.666,-8.789,-11.719,-35.156,-28.320,0.000,0
1749790806.670,-13.672,-17.090,-35.156,-26.367,0.000,0
1749790806.674,-17.090,-17.578,-29.297,-24.414,0.000,0
1749790806.678,-10.742,-18.066,-26.367,-26.367,0.000,0
1749790806.682,-13.184,-21.973,-31.250,-28.320,0.000,0
1749790806.686,-9.766,-19.531,-25.879,-25.391,0.000,0
1749790806.690,-13.184,-17.578,-26.367,-21.973,0.000,0
1749790806.694,-16.113,-21.484,-31.738,-20.020,0.000,0
1749790806.697,-4.883,-23.438,-34.668,-20.996,0.000,0
1749790806.701,-4.395,-23.926,-37.109,-23.438,0.000,0
1749790806.705,-10.742,-24.414,-33.203,-22.949,0.000,0
1749790806.709,-13.672,-20.020,-32.715,-24.902,0.000,0
1749790806.713,-17.578,-20.996,-31.738,-26.367,0.000,0
1749790806.717,-22.461,-26.855,-27.832,-25.879,0.000,0
1749790806.721,-15.625,-26.855,-28.809,-22.461,0.000,0
1749790806.725,-9.766,-22.461,-24.414,-15.625,0.000,0
1749790806.729,-6.348,-21.973,-23.926,-13.184,0.000,0
1749790806.733,-6.348,-28.320,-27.832,-11.230,0.000,0
1749790806.737,-8.789,-28.809,-25.391,-13.672,0.000,0
1749790806.741,-13.672,-25.391,-26.855,-20.508,0.000,0
1749790806.744,-15.625,-25.391,-23.926,-20.508,0.000,0
1749790806.748,-11.230,-25.391,-23.438,-17.090,0.000,0
1749790806.752,-9.766,-27.344,-24.902,-15.137,0.000,0
1749790806.756,-10.254,-28.809,-23.438,-15.625,0.000,0
1749790806.760,-12.207,-22.461,-25.391,-20.020,0.000,0
1749790806.764,-4.395,-23.438,-28.320,-18.066,0.000,0
1749790806.768,-4.883,-24.414,-32.715,-16.602,0.000,0
1749790806.772,-17.090,-22.461,-33.691,-12.695,0.000,0
1749790806.776,-12.695,-26.367,-30.273,-9.766,0.000,0
1749790806.780,-14.648,-27.344,-27.344,-10.742,0.000,0
1749790806.784,-12.695,-27.832,-26.855,-12.207,0.000,0
1749790806.787,-2.930,-26.855,-21.973,-12.695,0.000,0
1749790806.791,-7.812,-25.391,-17.090,-7.324,0.000,0
1749790806.795,-10.742,-27.344,-20.996,-7.324,0.000,0
1749790806.799,-3.418,-25.879,-25.391,-8.301,0.000,0
1749790806.803,-0.488,-23.438,-29.297,-10.254,0.000,0
1749790806.807,-2.930,-26.855,-28.320,-15.137,0.000,0
1749790806.811,-2.930,-29.785,-25.879,-13.184,0.000,0
1749790806.815,-1.953,-29.785,-25.391,-17.578,0.000,0
1749790806.819,-2.441,-28.320,-25.879,-19.043,0.000,0
1749790806.823,9.766,-24.902,-20.508,-5.371,0.000,0
1749790806.827,10.254,-24.414,-24.902,-7.812,0.000,0
1749790806.830,-11.719,-21.973,-30.762,-25.879,0.000,0
1749790806.834,-17.090,-17.090,-27.344,-31.250,0.000,0
1749790806.838,-7.324,-16.113,-29.785,-28.320,0.000,0
1749790806.842,0.000,-15.137,-36.133,-29.297,0.000,0
1749790806.846,-2.441,-12.695,-34.668,-30.273,0.000,0
1749790806.850,-3.418,-9.277,-33.691,-31.250,0.000,0
1749790806.854,-12.695,-13.672,-36.133,-40.039,0.000,0
1749790806.858,-16.113,-14.160,-32.715,-39.062,0.000,0
1749790806.862,-10.254,-11.719,-32.227,-30.273,0.000,0
1749790806.866,-15.625,-13.672,-31.250,-28.809,0.000,0
1749790806.870,-20.020,-9.277,-26.367,-26.855,0.000,0
1749790806.873,-14.160,-8.301,-28.320,-22.949,0.000,0
1749790806.877,-10.742,-8.789,-29.785,-20.020,0.000,0
1749790806.881,-11.719,-7.324,-27.344,-21.484,0.000,0
1749790806.885,-9.277,-10.254,-24.414,-22.949,0.000,0
1749790806.889,-12.207,-10.742,-21.973,-16.602,0.000,0
1749790806.893,-18.066,-6.836,-23.438,-20.996,0.000,0
1749790806.897,-12.695,-11.230,-28.809,-29.297,0.000,0
1749790806.901,-11.230,-14.648,-30.273,-25.879,0.000,0
1749790806.904,-9.277,-12.695,-29.297,-24.902,0.000,0
1749790806.909,-11.230,-14.648,-30.762,-21.484,0.000,0
1749790806.913,-6.348,-17.578,-31.738,-18.066,0.000,0
1749790806.916,-0.488,-19.043,-30.762,-20.508,0.000,0
1749790806.920,-11.719,-22.461,-32.227,-19.531,0.000,0
1749790806.924,-14.648,-18.555,-33.203,-26.367,0.000,0
1749790806.928,-7.324,-14.160,-28.809,-23.438,0.000,0
1749790806.932,-2.441,-21.484,-30.273,-9.277,0.000,0
1749790806.936,-1.953,-25.879,-29.785,-4.883,0.000,0
1749790806.940,-1.953,-25.879,-24.902,-7.812,0.000,0
1749790806.943,-2.930,-26.367,-22.949,-2.441,0.000,0
1749790806.947,-5.859,-29.785,-23.438,-0.488,0.000,0
1749790806.951,-7.812,-29.297,-22.949,-13.184,0.000,0
1749790806.955,-15.137,-27.344,-25.391,-19.043,0.000,0
1749790806.959,-19.531,-31.738,-30.762,-20.996,0.000,0
1749790806.963,-17.578,-32.715,-33.691,-25.391,0.000,0
1749790806.967,-18.555,-37.598,-29.297,-21.973,0.000,0
1749790806.971,-10.254,-39.062,-27.832,-20.508,0.000,0
1749790806.975,-5.371,-34.668,-27.344,-19.043,0.000,0
1749790806.979,-10.254,-38.086,-26.367,-10.254,0.000,0
1749790806.983,-10.254,-42.480,-32.715,-9.277,0.000,0
1749790806.986,-7.324,-38.574,-34.180,-10.254,0.000,0
1749790806.990,1.953,-31.250,-29.297,-8.301,0.000,0
1749790806.994,4.395,-25.879,-31.738,-8.301,0.000,0
1749790806.998,-8.789,-32.227,-37.598,-17.578,0.000,0
1749790807.002,-9.766,-35.645,-40.527,-26.367,0.000,0
1749790807.006,-11.230,-32.227,-40.527,-24.902,0.000,0
1749790807.010,-20.996,-30.762,-38.086,-24.414,0.000,0
1749790807.014,-14.160,-33.203,-36.133,-24.414,0.000,0
1749790807.018,-17.090,-38.574,-38.574,-29.785,0.000,0
1749790807.022,-12.695,-38.574,-37.598,-31.250,0.000,0
1749790807.026,-10.742,-36.133,-31.738,-24.902,0.000,0
1749790807.030,-12.695,-34.180,-32.227,-19.531,0.000,0
1749790807.033,-8.789,-36.133,-31.250,-22.461,0.000,0
1749790807.037,-12.207,-34.668,-29.785,-23.926,0.000,0
1749790807.041,-9.277,-36.621,-32.227,-23.438,0.000,0
1749790807.045,-7.812,-39.062,-30.762,-23.438,0.000,0
1749790807.049,0.000,-38.574,-30.273,-21.973,0.000,0
1749790807.053,0.000,-37.598,-30.273,-22.461,0.000,0
1749790807.057,0.000,-33.691,-29.297,-21.484,0.000,0
1749790807.061,0.000,-27.832,-26.367,-22.461,0.000,0
1749790807.065,0.000,-27.832,-26.367,-21.973,0.000,0
1749790807.069,0.000,-29.297,-28.809,-16.602,0.000,0
1749790807.073,0.000,-28.809,-29.297,-18.066,0.000,0
1749790807.077,0.000,-29.785,-34.668,-22.949,0.000,0
1749790807.080,0.000,-29.297,-37.598,-16.113,0.000,0
1749790807.084,0.000,-27.344,-32.227,-16.602,0.000,0
1749790807.088,0.000,-23.926,-33.203,-26.855,0.000,0
1749790807.092,0.000,-22.949,-39.551,-25.391,0.000,0
1749790807.096,13.672,-23.926,-34.180,-8.789,0.000,0
1749790807.100,3.906,-32.715,-20.508,-13.672,0.000,0
1749790807.104,-13.672,-40.527,-11.719,-17.090,0.000,0
1749790807.108,-8.789,-41.016,-9.277,-9.277,0.000,0
1749790807.112,-11.230,-44.434,-10.742,-10.254,0.000,0
1749790807.116,-8.789,-49.805,-9.277,-4.395,0.000,0
1749790807.120,-5.859,-53.223,-10.254,0.488,0.000,0
1749790807.123,-9.766,-55.664,-12.207,2.441,0.000,0
1749790807.127,-12.695,-55.664,-11.719,-4.883,0.000,0
1749790807.131,-13.184,-52.246,-16.602,-11.230,0.000,0
1749790807.135,-14.648,-50.293,-22.461,-5.859,0.000,0
1749790807.139,-22.461,-51.270,-20.996,-9.277,0.000,0
1749790807.143,-21.484,-51.270,-21.484,-10.254,0.000,0
1749790807.147,-16.113,-50.293,-26.855,-9.766,0.000,0
1749790807.151,-19.531,-51.758,-30.273,-9.766,0.000,0
1749790807.155,-15.625,-55.176,-26.367,-7.324,0.000,0
1749790807.159,-10.254,-52.734,-24.414,-6.836,0.000,0
1749790807.163,-4.883,-52.734,-23.438,-11.230,0.000,0
1749790807.166,-4.883,-52.734,-21.484,-20.020,0.000,0
1749790807.170,-6.836,-42.969,-24.414,-14.160,0.000,0
1749790807.174,-10.254,-39.551,-22.461,-7.324,0.000,0
1749790807.178,-10.254,-41.504,-25.391,-11.719,0.000,0
1749790807.182,-10.742,-39.551,-28.320,-11.230,0.000,0
1749790807.186,-13.184,-39.551,-21.973,-9.766,0.000,0
1749790807.190,-1.465,-40.527,-19.531,-6.348,0.000,0
1749790807.194,0.977,-39.062,-20.508,-5.371,0.000,0
1749790807.198,-0.488,-39.062,-22.461,-7.324,0.000,0
1749790807.202,0.488,-40.039,-20.508,-7.324,0.000,0
1749790807.206,-10.742,-39.062,-20.020,-7.812,0.000,0
1749790807.210,-11.719,-36.133,-23.926,-11.719,0.000,0
1749790807.213,-10.742,-33.203,-23.438,-10.254,0.000,0
1749790807.217,-11.719,-31.738,-22.461,-14.160,0.000,0
1749790807.221,-17.090,-32.715,-19.531,-19.531,0.000,0
1749790807.225,-19.531,-37.598,-25.391,-20.996,0.000,0
1749790807.229,-22.461,-41.016,-27.344,-26.855,0.000,0
1749790807.233,-13.672,-39.551,-19.531,-20.508,0.000,0
1749790807.237,-16.602,-37.109,-21.973,-11.719,0.000,0
1749790807.241,-22.461,-39.062,-21.973,-14.160,0.000,0
1749790807.245,-16.602,-41.992,-22.461,-19.043,0.000,0
1749790807.249,-20.508,-38.086,-29.785,-24.414,0.000,0
1749790807.252,-16.602,-35.645,-28.809,-25.391,0.000,0
1749790807.256,-18.066,-34.668,-23.438,-22.949,0.000,0
1749790807.260,-20.508,-34.180,-28.320,-30.273,0.000,0
1749790807.264,-15.137,-38.086,-31.250,-31.250,0.000,0
1749790807.268,-16.602,-40.039,-29.785,-20.508,0.000,0
1749790807.272,-22.461,-40.039,-31.250,-18.066,0.000,0
1749790807.276,-19.043,-35.645,-25.391,-25.879,0.000,0
1749790807.280,-19.531,-38.574,-21.973,-25.879,0.000,0
1749790807.284,-17.090,-41.992,-24.414,-19.043,0.000,0
1749790807.288,-11.230,-35.156,-23.926,-26.855,0.000,0
1749790807.292,-11.230,-28.320,-21.973,-24.902,0.000,0
1749790807.295,-6.836,-27.832,-19.531,-15.625,0.000,0
1749790807.299,-12.207,-31.738,-21.484,-19.043,0.000,0
1749790807.303,-16.602,-32.715,-22.949,-20.020,0.000,0
1749790807.307,-8.301,-30.273,-21.484,-14.648,0.000,0
1749790807.311,-7.324,-31.250,-22.461,-16.602,0.000,0
1749790807.315,-16.602,-30.762,-27.832,-20.020,0.000,0
1749790807.319,-17.578,-31.738,-30.762,-17.090,0.000,0
1749790807.322,-16.113,-32.715,-29.785,-13.672,0.000,0
1749790807.326,-20.508,-35.645,-35.645,-20.508,0.000,0
1749790807.331,-18.555,-39.062,-37.598,-28.320,0.000,0
1749790807.334,-17.578,-35.645,-30.762,-19.531,0.000,0
1749790807.338,-11.719,-37.109,-27.832,-13.672,0.000,0
1749790807.342,-7.812,-38.086,-29.297,-16.602,0.000,0
1749790807.346,-12.695,-39.062,-34.668,-20.508,0.000,0
1749790807.350,-1.953,-40.039,-31.738,-21.973,0.000,0
1749790807.354,4.395,-38.086,-27.832,-17.578,0.000,0
1749790807.358,-4.883,-41.992,-33.691,-16.113,0.000,0
1749790807.362,-2.930,-40.039,-31.738,-15.625,0.000,0
1749790807.365,-2.441,-35.156,-28.320,-9.766,0.000,0
1749790807.369,4.395,-27.832,-25.391,-11.230,0.000,0
1749790807.373,2.441,-25.879,-22.461,-9.766,0.000,0
1749790807.378,4.395,-32.715,-24.414,-4.883,0.000,0
1749790807.381,6.348,-34.668,-25.879,-9.277,0.000,0
1749790807.385,-10.742,-32.715,-22.461,-8.301,0.000,0
1749790807.389,-10.742,-31.738,-19.531,-11.719,0.000,0
1749790807.393,-4.883,-31.738,-21.973,-17.578,0.000,0
1749790807.397,-8.789,-31.250,-25.391,-21.484,0.000,0
1749790807.401,-3.906,-25.879,-24.902,-22.949,0.000,0
1749790807.405,-4.395,-26.855,-23.926,-20.020,0.000,0
1749790807.409,-18.066,-32.227,-24.414,-25.879,0.000,0
1749790807.412,-20.508,-43.945,-26.367,-24.902,0.000,0
1749790807.416,-16.113,-49.805,-30.762,-27.344,0.000,0
1749790807.420,-18.555,-40.039,-28.320,-24.902,0.000,0
1749790807.425,-19.531,-33.203,-23.926,-15.625,0.000,0
1749790807.428,-13.672,-28.809,-26.855,-18.066,0.000,0
1749790807.432,-9.277,-27.344,-24.902,-16.602,0.000,0
1749790807.436,-13.672,-29.297,-23.438,-22.461,0.000,0
1749790807.440,-17.578,-30.273,-24.414,-26.367,0.000,0
1749790807.444,-15.625,-27.344,-23.926,-25.391,0.000,0
1749790807.448,-5.371,-28.809,-28.320,-26.855,0.000,0
1749790807.452,-9.277,-37.109,-29.297,-30.762,0.000,0
1749790807.456,-25.391,-39.551,-23.926,-40.039,0.000,0
1749790807.459,-26.367,-42.480,-24.414,-38.086,0.000,0
1749790807.463,-14.648,-43.945,-29.297,-24.902,0.000,0
1749790807.467,-12.207,-35.645,-34.668,-20.020,0.000,0
1749790807.472,0.000,-30.273,-32.227,-39.551,0.000,0
1749790807.475,0.000,-28.320,-29.297,-34.180,0.000,0
1749790807.479,0.000,-22.461,-28.809,-20.020,0.000,0
1749790807.483,0.000,-20.508,-31.738,-21.484,0.000,0
1749790807.487,0.000,-18.066,-39.062,-20.020,0.000,0
1749790807.491,0.000,-14.160,-41.016,-24.414,0.000,0
1749790807.495,0.000,-10.742,-39.062,-25.391,0.000,0
1749790807.499,0.000,-12.695,-38.574,-18.555,0.000,0
1749790807.502,0.000,-13.672,-32.227,-15.625,0.000,0
1749790807.506,0.000,-13.184,-25.391,-17.578,0.000,0
1749790807.510,0.000,-16.113,-26.367,-17.090,0.000,0
1749790807.514,0.000,-9.277,-30.762,-14.648,0.000,0
1749790807.518,-2.930,-13.672,-33.203,-14.160,0.000,0
1749790807.522,-1.953,-17.578,-35.645,-12.695,0.000,0
1749790807.526,8.301,-11.719,-30.762,-8.789,0.000,0
1749790807.530,7.812,-17.578,-31.738,-9.766,0.000,0
1749790807.534,4.395,-22.461,-38.086,-16.113,0.000,0
1749790807.538,-3.418,-24.414,-36.621,-18.555,0.000,0
1749790807.542,-9.277,-24.902,-33.691,-21.973,0.000,0
1749790807.546,-15.625,-22.461,-31.738,-25.391,0.000,0
1749790807.549,-16.113,-20.996,-29.297,-20.020,0.000,0
1749790807.553,-9.766,-15.625,-29.785,-14.648,0.000,0
1749790807.557,-7.812,-18.066,-33.203,-17.090,0.000,0
1749790807.561,-6.348,-24.414,-32.715,-17.578,0.000,0
1749790807.565,-20.996,-28.809,-30.273,-17.090,0.000,0
1749790807.569,-29.297,-26.367,-33.203,-23.438,0.000,0
1749790807.573,-16.113,-19.531,-34.668,-29.297,0.000,0
1749790807.577,-16.113,-21.484,-33.203,-24.414,0.000,0
1749790807.581,-20.996,-24.902,-34.668,-20.020,0.000,0
1749790807.585,-16.602,-26.367,-33.691,-21.973,0.000,0
1749790807.588,-12.207,-26.855,-29.297,-15.137,0.000,0
1749790807.592,-15.137,-27.832,-29.785,-14.160,0.000,0
1749790807.596,-15.137,-28.809,-29.785,-20.020,0.000,0
1749790807.600,-10.254,-26.855,-26.855,-15.625,0.000,0
1749790807.604,-10.742,-24.414,-25.391,-13.672,0.000,0
1749790807.608,-16.113,-28.809,-21.484,-17.090,0.000,0
1749790807.612,-20.020,-28.320,-23.926,-16.602,0.000,0
1749790807.616,-17.578,-23.438,-27.832,-26.367,0.000,0
1749790807.620,-4.883,-20.508,-27.832,-27.832,0.000,0
1749790807.624,11.230,-20.996,-28.809,-11.719,0.000,0
1749790807.628,0.488,-33.203,-23.926,-4.883,0.000,0
1749790807.631,-23.926,-43.457,-22.949,-19.531,0.000,0
1749790807.635,-37.109,-49.805,-19.531,-28.320,0.000,0
1749790807.639,-43.457,-60.059,-13.184,-20.996,0.000,0
1749790807.643,-41.504,-62.500,-11.719,-23.438,0.000,0
1749790807.647,-40.527,-61.523,-7.324,-20.996,0.000,0
1749790807.651,-32.227,-62.988,-5.859,-5.371,0.000,0
1749790807.655,-30.273,-65.430,-5.859,-3.906,0.000,0
1749790807.659,-41.504,-74.707,1.465,-7.324,0.000,0
1749790807.663,-42.480,-77.637,1.465,2.930,0.000,0
1749790807.667,-35.645,-77.637,-1.465,6.836,0.000,0
1749790807.671,-38.086,-77.637,2.930,3.906,0.000,0
1749790807.674,-35.645,-72.754,2.441,2.930,0.000,0
1749790807.678,-34.668,-66.406,-2.441,-7.324,0.000,0
1749790807.682,-34.668,-65.430,-9.277,-9.277,0.000,0
1749790807.686,-26.855,-63.477,-13.672,-4.395,0.000,0
1749790807.690,-24.414,-61.035,-14.648,-14.648,0.000,0
1749790807.694,-24.414,-61.523,-17.090,-19.043,0.000,0
1749790807.698,-23.926,-59.082,-13.184,-9.277,0.000,0
1749790807.702,-24.414,-59.570,-16.113,-11.719,0.000,0
1749790807.706,-29.297,-58.105,-23.438,-21.973,0.000,0
1749790807.710,-32.715,-53.711,-20.996,-21.973,0.000,0
1749790807.713,-24.902,-54.688,-15.137,-16.113,0.000,0
1749790807.717,-20.996,-52.734,-16.602,-12.695,0.000,0
1749790807.721,-17.578,-46.387,-14.160,-12.207,0.000,0
1749790807.725,-15.625,-49.316,-11.230,-15.625,0.000,0
1749790807.729,-19.531,-50.293,-16.602,-11.719,0.000,0
1749790807.733,-18.555,-47.363,-21.484,-12.207,0.000,0
1749790807.737,-19.531,-42.480,-23.438,-18.555,0.000,0
1749790807.741,-15.137,-41.016,-20.020,-20.508,0.000,0
1749790807.744,-11.230,-42.969,-18.066,-17.578,0.000,0
1749790807.748,-14.160,-42.969,-17.090,-17.578,0.000,0
1749790807.753,-13.184,-39.062,-10.742,-12.695,0.000,0
1749790807.757,-12.695,-34.668,-11.719,-12.207,0.000,0
1749790807.760,-15.137,-32.715,-13.672,-15.137,0.000,0
1749790807.764,-12.695,-35.156,-15.137,-11.719,0.000,0
1749790807.768,-15.137,-36.621,-19.531,-13.672,0.000,0
1749790807.772,-16.113,-33.203,-19.531,-16.602,0.000,0
1749790807.776,-9.766,-32.715,-18.555,-11.230,0.000,0
1749790807.780,-10.742,-30.273,-20.996,-8.301,0.000,0
1749790807.784,-15.625,-31.250,-25.391,-10.254,0.000,0
1749790807.788,-19.043,-34.668,-23.438,-9.766,0.000,0
1749790807.791,-13.184,-35.645,-21.973,-12.695,0.000,0
1749790807.795,-11.230,-31.250,-24.902,-19.531,0.000,0
1749790807.800,-15.625,-29.297,-25.879,-18.555,0.000,0
1749790807.804,-15.625,-28.809,-30.273,-21.973,0.000,0
1749790807.807,-17.090,-25.391,-30.273,-26.367,0.000,0
1749790807.811,-17.578,-24.414,-27.344,-21.973,0.000,0
1749790807.815,-18.066,-28.809,-26.855,-18.555,0.000,0
1749790807.819,-20.508,-27.832,-23.438,-18.555,0.000,0
1749790807.823,-19.531,-24.902,-20.996,-12.695,0.000,0
1749790807.827,-28.809,-37.109,-27.832,-17.578,0.000,0
1749790807.831,-30.273,-41.016,-25.879,-18.555,0.000,0
1749790807.835,-21.484,-35.645,-25.879,-17.578,0.000,0
1749790807.838,-23.438,-29.785,-26.855,-19.043,0.000,0
1749790807.842,-23.438,-24.902,-23.438,-14.160,0.000,0
1749790807.847,-26.367,-27.832,-25.391,-16.602,0.000,0
1749790807.851,-19.531,-28.320,-23.926,-18.555,0.000,0
1749790807.854,-15.625,-23.926,-19.043,-17.578,0.000,0
1749790807.858,-22.949,-24.414,-20.508,-18.555,0.000,0
1749790807.862,-24.414,-34.668,-30.273,-28.320,0.000,0
1749790807.866,-27.344,-34.180,-28.809,-29.297,0.000,0
1749790807.870,-21.973,-27.832,-27.832,-24.414,0.000,0
1749790807.874,-18.066,-28.320,-34.180,-24.902,0.000,0
1749790807.878,-18.066,-30.762,-34.180,-19.043,0.000,0
1749790807.881,-13.184,-34.180,-36.133,-18.066,0.000,0
1749790807.885,-13.184,-27.344,-38.086,-18.555,0.000,0
1749790807.889,-20.020,-25.391,-30.762,-27.344,0.000,0
1749790807.894,-30.762,-30.273,-27.344,-35.156,0.000,0
1749790807.897,-26.367,-31.738,-31.738,-32.715,0.000,0
1749790807.901,-24.902,-36.621,-36.133,-35.156,0.000,0
1749790807.905,-25.879,-38.086,-35.156,-35.156,0.000,0
1749790807.909,-23.438,-34.180,-31.250,-33.691,0.000,0
1749790807.913,-34.180,-32.715,-36.621,-38.086,0.000,0
1749790807.917,-32.227,-27.344,-37.598,-42.480,0.000,0
1749790807.921,-22.461,-20.996,-30.762,-37.109,0.000,0
1749790807.925,-21.484,-22.949,-30.762,-33.203,0.000,0
1749790807.928,-20.508,-26.367,-29.297,-31.738,0.000,0
1749790807.932,-20.508,-25.879,-27.344,-31.738,0.000,0
1749790807.936,-23.438,-28.320,-30.762,-30.762,0.000,0
1749790807.940,-25.391,-34.180,-33.203,-32.227,0.000,0
1749790807.944,-23.926,-36.621,-31.738,-36.133,0.000,0
1749790807.948,-35.156,-33.691,-35.156,-34.180,0.000,0
1749790807.952,-31.738,-31.250,-36.133,-29.785,0.000,0
1749790807.956,-34.668,-34.180,-36.133,-35.645,0.000,0
1749790807.960,-40.039,-34.180,-35.645,-39.551,0.000,0
1749790807.964,-24.902,-25.391,-33.203,-29.785,0.000,0
1749790807.968,-25.879,-21.484,-37.598,-30.762,0.000,0
1749790807.971,-25.879,-26.855,-39.062,-34.668,0.000,0
1749790807.975,-32.715,-32.227,-38.086,-36.621,0.000,0
1749790807.979,-37.598,-30.273,-39.062,-41.504,0.000,0
1749790807.983,-34.668,-29.297,-40.039,-42.969,0.000,0
1749790807.987,-29.297,-28.809,-39.062,-45.410,0.000,0
1749790807.991,-31.250,-28.809,-42.969,-55.664,0.000,0
1749790807.995,-31.738,-28.320,-45.410,-51.270,0.000,0
1749790807.999,-29.785,-27.344,-41.504,-36.133,0.000,0
1749790808.003,-34.180,-30.273,-41.016,-36.621,0.000,0
1749790808.007,-36.133,-32.227,-42.969,-43.457,0.000,0
1749790808.010,-34.180,-31.250,-38.574,-42.480,0.000,0
1749790808.014,-37.109,-33.203,-35.156,-40.039,0.000,0
1749790808.018,-38.574,-32.227,-37.109,-41.016,0.000,0
1749790808.022,-25.391,-32.715,-37.109,-36.621,0.000,0
1749790808.026,-29.785,-33.691,-35.645,-41.016,0.000,0
1749790808.030,-57.617,-30.762,-34.668,-59.082,0.000,0
1749790808.034,-57.129,-29.785,-34.668,-59.570,0.000,0
1749790808.038,-60.059,-25.391,-34.180,-62.012,0.000,0
1749790808.042,-72.266,-23.926,-33.203,-77.148,0.000,0
1749790808.046,-69.824,-28.320,-31.738,-76.660,0.000,0
1749790808.050,-71.289,-30.273,-31.250,-76.172,0.000,0
1749790808.053,-82.031,-31.738,-28.809,-86.914,0.000,0
1749790808.057,-89.844,-34.180,-28.320,-95.215,0.000,0
1749790808.061,-83.984,-31.250,-27.832,-89.355,0.000,0
1749790808.065,-83.008,-33.691,-26.855,-86.426,0.000,0
1749790808.069,-89.844,-33.203,-30.762,-94.238,0.000,0
1749790808.073,-86.426,-30.273,-32.715,-91.309,0.000,0
1749790808.077,-82.520,-32.227,-36.133,-89.355,0.000,0
1749790808.081,-92.285,-33.203,-34.180,-87.891,0.000,0
1749790808.085,-91.309,-35.156,-30.273,-86.914,0.000,0
1749790808.089,-81.055,-34.180,-28.320,-92.285,0.000,0
1749790808.093,-79.102,-34.180,-29.785,-87.402,0.000,0
1749790808.096,-81.055,-43.457,-34.668,-78.613,0.000,0
1749790808.100,-73.242,-43.945,-39.062,-76.172,0.000,0
1749790808.104,-59.082,-35.156,-39.062,-72.266,0.000,0
1749790808.108,-53.223,-34.668,-32.715,-65.430,0.000,0
1749790808.112,-55.176,-33.691,-35.156,-58.105,0.000,0
1749790808.116,-49.805,-35.645,-38.086,-56.641,0.000,0
1749790808.120,-45.410,-33.691,-33.203,-55.176,0.000,0
1749790808.123,-46.387,-29.785,-33.203,-55.664,0.000,0
1749790808.128,-43.457,-33.203,-34.180,-56.641,0.000,0
1749790808.132,-40.039,-33.691,-34.668,-54.688,0.000,0
1749790808.135,-37.598,-28.320,-34.180,-55.664,0.000,0
1749790808.139,-37.598,-25.391,-34.668,-52.246,0.000,0
1749790808.143,-38.086,-27.832,-35.645,-53.711,0.000,0
1749790808.147,-37.109,-26.855,-34.668,-59.570,0.000,0
1749790808.151,-32.227,-28.320,-36.133,-54.688,0.000,0
1749790808.155,-34.668,-28.809,-35.156,-48.340,0.000,0
1749790808.159,-37.109,-24.902,-34.668,-50.781,0.000,0
1749790808.162,-33.203,-25.391,-40.527,-56.641,0.000,0
1749790808.166,-37.109,-27.344,-37.598,-53.223,0.000,0
1749790808.170,-37.598,-28.809,-31.250,-45.898,0.000,0
1749790808.175,-45.898,-34.668,-32.715,-50.781,0.000,0
1749790808.178,-49.316,-35.645,-28.809,-47.852,0.000,0
1749790808.182,-36.621,-31.250,-25.879,-34.668,0.000,0
1749790808.186,-37.598,-34.180,-30.762,-44.434,0.000,0
1749790808.190,-38.574,-31.250,-30.762,-49.805,0.000,0
1749790808.194,-39.551,-29.785,-32.227,-53.223,0.000,0
1749790808.198,-49.316,-35.156,-36.621,-55.664,0.000,0
1749790808.202,-46.387,-32.715,-37.598,-52.246,0.000,0
1749790808.206,-40.527,-34.180,-38.086,-60.059,0.000,0
1749790808.209,-47.852,-35.156,-35.645,-62.500,0.000,0
1749790808.213,-47.852,-33.203,-38.086,-64.453,0.000,0
1749790808.217,-42.969,-31.250,-41.504,-70.801,0.000,0
1749790808.222,-40.527,-26.855,-42.969,-71.777,0.000,0
1749790808.225,-41.992,-27.344,-42.969,-70.801,0.000,0
1749790808.229,-40.527,-24.902,-41.504,-71.289,0.000,0
1749790808.233,-41.504,-22.949,-40.527,-77.637,0.000,0
1749790808.237,-43.457,-26.855,-40.039,-73.242,0.000,0
1749790808.241,-41.504,-24.414,-41.992,-64.453,0.000,0
1749790808.245,-31.250,-22.461,-39.551,-62.988,0.000,0
1749790808.249,-38.574,-27.832,-42.969,-61.035,0.000,0
1749790808.253,-53.711,-31.738,-47.852,-58.105,0.000,0
1749790808.256,-45.898,-29.785,-42.480,-57.617,0.000,0
1749790808.260,-50.293,-31.250,-44.922,-65.918,0.000,0
1749790808.264,-52.246,-32.227,-41.992,-68.359,0.000,0
1749790808.268,-46.875,-32.715,-40.039,-63.965,0.000,0
1749790808.272,-47.852,-32.227,-40.039,-60.547,0.000,0
1749790808.276,-52.734,-26.855,-36.133,-65.430,0.000,0
1749790808.280,-51.758,-24.414,-37.109,-69.824,0.000,0
1749790808.284,-53.223,-28.320,-43.945,-69.824,0.000,0
1749790808.288,-49.316,-27.832,-45.898,-73.242,0.000,0
1749790808.292,-42.969,-25.391,-44.922,-69.336,0.000,0
1749790808.296,-50.781,-28.320,-40.039,-71.289,0.000,0
1749790808.299,-57.617,-30.273,-38.086,-66.895,0.000,0
1749790808.303,-53.711,-31.250,-39.551,-62.500,0.000,0
1749790808.307,-49.805,-33.203,-40.039,-73.242,0.000,0
1749790808.311,-56.152,-30.273,-38.574,-75.195,0.000,0
1749790808.315,-55.176,-28.809,-41.016,-71.289,0.000,0
1749790808.319,-57.617,-30.762,-42.480,-76.660,0.000,0
1749790808.323,-58.105,-23.926,-42.480,-79.590,0.000,0
1749790808.327,-52.246,-19.531,-43.457,-76.172,0.000,0
1749790808.331,-52.246,-22.461,-40.039,-73.242,0.000,0
1749790808.335,-47.363,-25.391,-40.039,-74.707,0.000,0
1749790808.339,-48.340,-28.320,-45.410,-69.824,0.000,0
1749790808.342,-55.176,-28.320,-45.898,-68.359,0.000,0
1749790808.346,-50.293,-26.855,-40.039,-67.871,0.000,0
1749790808.350,-44.922,-27.832,-38.086,-61.035,0.000,0
1749790808.354,-52.734,-30.273,-39.062,-67.383,0.000,0
1749790808.358,-57.617,-27.832,-34.668,-75.195,0.000,0
1749790808.362,-60.059,-26.367,-32.227,-73.730,0.000,0
1749790808.366,-59.570,-31.250,-34.668,-82.520,0.000,0
1749790808.370,-65.918,-30.762,-32.715,-89.355,0.000,0
1749790808.374,-68.848,-30.273,-29.297,-86.914,0.000,0
1749790808.378,-65.918,-27.344,-36.133,-83.496,0.000,0
1749790808.382,-60.547,-24.902,-41.016,-78.613,0.000,0
1749790808.385,-56.641,-22.949,-35.156,-81.543,0.000,0
1749790808.389,-52.246,-19.043,-34.668,-77.148,0.000,0
1749790808.393,-42.969,-18.066,-35.156,-76.660,0.000,0
1749790808.397,-47.852,-19.531,-36.621,-82.031,0.000,0
1749790808.401,-54.199,-16.602,-37.109,-81.055,0.000,0
1749790808.405,-57.129,-17.578,-36.621,-82.520,0.000,0
1749790808.409,-59.570,-22.461,-39.062,-83.984,0.000,0
1749790808.413,-59.570,-20.020,-42.969,-83.984,0.000,0
1749790808.417,-55.176,-16.602,-38.086,-84.961,0.000,0
1749790808.421,-59.570,-16.602,-36.621,-83.984,0.000,0
1749790808.424,-62.500,-16.602,-39.062,-86.914,0.000,0
1749790808.428,-57.129,-15.625,-41.016,-91.309,0.000,0
1749790808.432,-62.988,-19.043,-42.969,-84.961,0.000,0
1749790808.436,-61.035,-22.461,-38.086,-78.125,0.000,0
1749790808.440,-50.781,-20.996,-37.598,-77.637,0.000,0
1749790808.444,-60.059,-19.043,-36.621,-78.125,0.000,0
1749790808.448,-60.059,-18.066,-34.180,-81.543,0.000,0
1749790808.452,-55.664,-15.137,-37.598,-75.684,0.000,0
1749790808.456,-58.594,-15.137,-40.039,-79.102,0.000,0
1749790808.460,-61.035,-17.090,-39.551,-86.914,0.000,0
1749790808.464,-65.430,-20.020,-35.645,-79.102,0.000,0
1749790808.467,-63.965,-20.996,-34.180,-74.219,0.000,0
1749790808.471,-55.176,-18.066,-35.156,-74.219,0.000,0
1749790808.475,-54.688,-17.578,-32.227,-66.895,0.000,0
1749790808.479,-57.129,-20.996,-29.297,-58.105,0.000,0
1749790808.483,-47.852,-10.742,-28.809,-64.941,0.000,0
1749790808.487,-47.852,-2.930,-31.250,-73.730,0.000,0
1749790808.491,-53.711,-9.277,-29.297,-75.195,0.000,0
1749790808.494,-62.500,-12.695,-28.809,-74.707,0.000,0
1749790808.498,-61.035,-13.184,-31.250,-69.336,0.000,0
1749790808.503,-59.570,-15.137,-29.297,-68.359,0.000,0
1749790808.507,-66.406,-15.625,-28.809,-74.707,0.000,0
1749790808.510,-65.918,-16.113,-26.855,-75.195,0.000,0
1749790808.514,-67.383,-17.578,-23.438,-78.125,0.000,0
1749790808.518,-58.594,-19.531,-25.391,-78.613,0.000,0
1749790808.522,-62.012,-18.555,-27.344,-73.730,0.000,0
1749790808.526,-65.918,-18.555,-20.996,-72.266,0.000,0
1749790808.530,-58.105,-19.531,-17.578,-73.242,0.000,0
1749790808.534,-60.059,-14.648,-21.973,-71.777,0.000,0
1749790808.538,-57.617,-9.766,-21.484,-63.477,0.000,0
1749790808.541,-57.617,-10.254,-17.090,-63.477,0.000,0
1749790808.545,-64.453,-15.137,-26.367,-73.730,0.000,0
1749790808.550,-56.152,-17.578,-29.297,-75.195,0.000,0
1749790808.554,-55.664,-17.090,-25.879,-73.730,0.000,0
1749790808.557,-67.871,-17.090,-29.785,-71.289,0.000,0
1749790808.561,-74.219,-15.625,-32.227,-73.730,0.000,0
1749790808.565,-75.684,-17.578,-32.715,-75.195,0.000,0
1749790808.569,-73.730,-19.531,-36.621,-83.008,0.000,0
1749790808.573,-70.312,-17.578,-41.016,-83.984,0.000,0
1749790808.577,-65.430,-18.555,-39.551,-76.660,0.000,0
1749790808.581,-72.754,-17.090,-34.668,-78.613,0.000,0
1749790808.585,-72.266,-16.602,-31.738,-74.219,0.000,0
1749790808.588,-75.684,-16.602,-34.668,-71.289,0.000,0
1749790808.592,-78.125,-14.648,-35.645,-70.801,0.000,0
1749790808.597,-73.242,-17.578,-33.691,-71.289,0.000,0
1749790808.601,-72.266,-20.020,-27.832,-70.312,0.000,0
1749790808.604,-70.312,-21.973,-28.809,-65.430,0.000,0
1749790808.608,-67.871,-19.531,-35.156,-68.848,0.000,0
1749790808.612,-70.801,-16.113,-35.645,-71.777,0.000,0
1749790808.616,-68.359,-16.113,-34.180,-67.871,0.000,0
1749790808.620,-63.965,-11.719,-32.227,-62.988,0.000,0
1749790808.624,-69.824,-7.324,-31.250,-56.641,0.000,0
1749790808.628,-71.289,-6.836,-32.227,-56.641,0.000,0
1749790808.632,-63.477,-11.230,-33.203,-66.406,0.000,0
1749790808.635,-64.941,-10.742,-31.250,-66.406,0.000,0
1749790808.639,-68.848,-8.301,-29.785,-64.453,0.000,0
1749790808.644,-66.895,-6.836,-25.879,-63.477,0.000,0
1749790808.647,-64.453,-11.719,-22.949,-62.012,0.000,0
1749790808.651,-59.570,-14.160,-22.949,-63.965,0.000,0
1749790808.655,-52.246,-13.184,-20.020,-56.641,0.000,0
1749790808.659,-48.340,-17.090,-14.648,-44.434,0.000,0
1749790808.663,-42.969,-16.113,-21.484,-50.293,0.000,0
1749790808.667,-51.270,-0.977,-37.109,-72.266,0.000,0
1749790808.671,-62.012,11.719,-41.016,-82.031,0.000,0
1749790808.675,-62.988,10.742,-40.039,-84.473,0.000,0
1749790808.678,-63.965,8.301,-37.109,-80.566,0.000,0
1749790808.682,-74.219,13.672,-39.551,-80.566,0.000,0
1749790808.686,-77.148,18.555,-42.969,-90.820,0.000,0
1749790808.690,-75.684,25.391,-43.457,-95.703,0.000,0
1749790808.694,-69.824,34.180,-47.363,-96.680,0.000,0
1749790808.698,-62.500,35.156,-48.828,-95.215,0.000,0
1749790808.702,-61.523,38.574,-51.758,-90.332,0.000,0
1749790808.706,-57.129,39.551,-53.711,-84.961,0.000,0
1749790808.710,-55.664,38.086,-46.875,-77.637,0.000,0
1749790808.714,-54.199,40.039,-39.062,-69.824,0.000,0
1749790808.718,-50.293,35.645,-35.645,-68.359,0.000,0
1749790808.721,-52.734,30.273,-34.668,-66.406,0.000,0
1749790808.725,-46.875,33.691,-32.715,-65.430,0.000,0
1749790808.729,-45.410,34.668,-34.180,-69.336,0.000,0
1749790808.733,-53.223,30.273,-35.645,-70.801,0.000,0
1749790808.737,-57.129,27.832,-33.203,-67.383,0.000,0
1749790808.741,-57.617,17.090,-35.156,-64.941,0.000,0
1749790808.745,-53.711,11.230,-34.668,-64.941,0.000,0
1749790808.749,-56.152,10.742,-35.156,-67.383,0.000,0
1749790808.753,-54.199,7.812,-32.715,-63.477,0.000,0
1749790808.757,-56.641,14.160,-33.691,-58.105,0.000,0
1749790808.761,-57.617,18.066,-36.133,-61.523,0.000,0
1749790808.764,-61.035,15.625,-29.785,-59.082,0.000,0
1749790808.768,-52.246,11.719,-23.438,-48.340,0.000,0
1749790808.772,-44.922,12.695,-20.508,-40.527,0.000,0
1749790808.776,-48.340,11.230,-22.949,-43.945,0.000,0
1749790808.780,-48.340,10.742,-26.855,-48.340,0.000,0
1749790808.784,-53.711,11.719,-26.367,-45.898,0.000,0
1749790808.788,-44.434,10.254,-19.531,-43.457,0.000,0
1749790808.792,-39.062,10.742,-18.555,-41.016,0.000,0
1749790808.796,-39.062,9.766,-17.090,-34.668,0.000,0
1749790808.800,-39.062,7.812,-14.160,-33.691,0.000,0
1749790808.803,-40.039,9.277,-10.254,-37.109,0.000,0
1749790808.807,-34.668,9.766,-8.789,-41.992,0.000,0
1749790808.811,-38.086,5.371,-11.719,-41.504,0.000,0
1749790808.815,-41.992,2.930,-10.742,-37.598,0.000,0
1749790808.819,-44.922,1.465,-14.160,-33.691,0.000,0
1749790808.823,-49.805,-1.465,-17.090,-32.227,0.000,0
1749790808.827,-38.574,0.000,-18.555,-41.016,0.000,0
1749790808.831,-31.250,2.441,-21.484,-42.480,0.000,0
1749790808.835,-36.133,-0.488,-20.020,-37.598,0.000,0
1749790808.839,-35.645,-0.977,-15.625,-39.551,0.000,0
1749790808.843,-31.738,-4.883,-17.578,-41.016,0.000,0
1749790808.846,-31.738,-6.348,-20.020,-31.738,0.000,0
1749790808.850,-35.156,-2.930,-20.996,-26.855,0.000,0
1749790808.854,-27.832,-5.371,-15.625,-26.367,0.000,0
1749790808.858,-23.438,-4.395,-12.207,-25.879,0.000,0
1749790808.862,-24.902,-3.418,-14.648,-30.273,0.000,0
1749790808.866,-33.203,-7.324,-11.719,-35.645,0.000,0
1749790808.870,-39.551,-5.371,-13.184,-38.086,0.000,0
1749790808.874,-39.551,-5.371,-15.137,-35.156,0.000,0
1749790808.878,-31.738,-3.906,-15.625,-35.156,0.000,0
1749790808.882,-29.785,-2.441,-16.113,-31.738,0.000,0
1749790808.886,-37.598,-2.930,-18.555,-30.273,0.000,0
1749790808.889,-36.621,-0.488,-20.508,-32.227,0.000,0
1749790808.893,-34.668,-1.953,-14.160,-34.180,0.000,0
1749790808.897,-38.574,-5.371,-15.137,-30.762,0.000,0
1749790808.901,-34.180,-5.859,-14.160,-24.414,0.000,0
1749790808.905,-32.715,-3.418,-14.648,-20.996,0.000,0
1749790808.909,-38.086,0.000,-16.602,-23.438,0.000,0
1749790808.913,-38.574,-1.465,-15.625,-27.344,0.000,0
1749790808.917,-38.086,-1.953,-12.207,-22.461,0.000,0
1749790808.920,-44.434,1.465,-11.230,-20.020,0.000,0
1749790808.925,-41.992,-2.441,-8.789,-20.508,0.000,0
1749790808.929,-41.992,-8.301,-11.719,-19.531,0.000,0
1749790808.933,-36.621,0.488,-17.090,-13.672,0.000,0
1749790808.936,-22.949,4.395,-13.672,-8.789,0.000,0
1749790808.940,-27.832,0.000,-13.672,-15.625,0.000,0
1749790808.944,-29.785,1.465,-14.160,-15.625,0.000,0
1749790808.948,-24.902,0.977,-14.648,-10.254,0.000,0
1749790808.952,-17.578,-1.953,-12.695,-8.301,0.000,0
1749790808.956,-19.043,-2.930,-8.789,-4.883,0.000,0
1749790808.960,-36.133,-4.883,-10.254,-3.906,0.000,0
1749790808.964,-27.344,-5.859,-11.719,-8.301,0.000,0
1749790808.967,-25.879,-5.371,-13.672,-7.812,0.000,0
1749790808.972,-38.086,-8.789,-14.648,-8.301,0.000,0
1749790808.976,-30.273,-1.465,-13.672,-6.836,0.000,0
1749790808.979,-32.715,5.371,-9.277,0.488,0.000,0
1749790808.983,-39.062,-3.418,-10.742,-1.953,0.000,0
1749790808.987,-35.156,-3.906,-12.207,-3.906,0.000,0
1749790808.991,-27.832,2.930,-7.812,-4.883,0.000,0
1749790808.995,-24.902,2.930,-6.348,-1.953,0.000,0
1749790808.999,-20.020,-1.465,-7.812,-0.977,0.000,0
1749790809.003,-17.090,1.465,-6.348,-7.812,0.000,0
1749790809.007,-22.461,8.789,0.488,-4.883,0.000,0
1749790809.010,-14.160,8.789,3.906,5.371,0.000,0
1749790809.014,-8.789,7.812,-0.977,6.836,0.000,0
1749790809.019,-17.578,5.859,-7.324,1.465,0.000,0
1749790809.023,-16.113,5.859,-4.395,3.906,0.000,0
1749790809.026,-13.184,5.371,-1.953,0.000,0.000,0
1749790809.030,-20.020,1.465,-6.348,-0.977,0.000,0
1749790809.034,-14.160,-2.441,-4.883,1.465,0.000,0
1749790809.038,-6.836,-1.465,-1.465,-1.465,0.000,0
1749790809.042,-5.859,7.324,0.977,2.441,0.000,0
1749790809.046,-5.371,7.812,1.953,9.277,0.000,0
1749790809.050,-1.465,2.441,5.371,12.695,0.000,0
1749790809.054,-2.441,0.000,7.324,13.672,0.000,0
1749790809.057,-3.418,-3.418,6.836,4.883,0.000,0
1749790809.061,-0.488,-2.441,6.348,4.395,0.000,0
1749790809.065,0.000,4.395,3.906,9.277,0.000,0
1749790809.069,3.906,5.371,-2.930,4.395,0.000,0
1749790809.073,0.488,5.859,-2.441,6.348,0.000,0
1749790809.077,-1.465,5.859,-1.953,8.789,0.000,0
1749790809.081,-2.930,6.836,-1.953,5.371,0.000,0
1749790809.085,-7.324,1.953,1.953,2.441,0.000,0
1749790809.089,-9.766,1.465,0.977,0.000,0.000,0
1749790809.093,-9.766,5.859,0.488,2.441,0.000,0
1749790809.097,-5.859,1.465,1.953,2.930,0.000,0
1749790809.100,1.465,2.441,2.441,0.977,0.000,0
1749790809.104,-3.418,4.395,0.488,0.977,0.000,0
1749790809.108,-16.602,2.441,0.488,2.441,0.000,0
1749790809.112,-6.836,1.465,-4.395,-2.930,0.000,0
1749790809.116,-4.883,3.418,-1.953,-9.277,0.000,0
1749790809.120,2.441,3.418,1.465,-4.883,0.000,0
1749790809.124,5.859,-0.488,-3.906,-2.441,0.000,0
1749790809.128,-6.348,-1.953,-2.930,4.395,0.000,0
1749790809.132,-8.301,-7.812,-3.418,3.906,0.000,0
1749790809.136,-0.488,-4.883,-1.465,8.789,0.000,0
1749790809.139,12.695,3.418,5.371,17.090,0.000,0
1749790809.143,6.348,-1.953,2.441,9.766,0.000,0
1749790809.147,-7.324,-4.883,-8.789,4.395,0.000,0
1749790809.151,-0.488,-4.883,-9.766,0.488,0.000,0
1749790809.155,-0.977,-9.766,-6.836,-4.395,0.000,0
1749790809.159,-12.207,-12.207,-7.324,-3.906,0.000,0
1749790809.163,-0.977,-7.812,-2.930,0.977,0.000,0
1749790809.167,2.441,-5.859,-3.906,-0.977,0.000,0
1749790809.171,-18.066,-3.418,-7.812,-4.883,0.000,0
1749790809.175,-15.137,-2.930,-3.418,2.930,0.000,0
1749790809.179,-13.184,-5.859,-5.371,-2.930,0.000,0
1749790809.182,-26.367,-7.324,-10.254,-8.789,0.000,0
1749790809.186,-29.297,-12.695,-9.277,-4.395,0.000,0
1749790809.190,-33.691,-13.672,-5.859,-8.789,0.000,0
1749790809.194,-29.785,-8.789,-1.465,-13.184,0.000,0
1749790809.198,-21.484,-5.371,0.977,-9.277,0.000,0
1749790809.202,-21.973,-12.207,-3.906,-13.184,0.000,0
1749790809.206,-19.043,-16.113,-6.836,-18.066,0.000,0
1749790809.210,-14.160,-14.160,-5.371,-11.719,0.000,0
1749790809.214,-22.949,-21.484,-11.719,-8.789,0.000,0
1749790809.218,-25.391,-24.902,-16.113,-16.602,0.000,0
1749790809.221,-22.949,-19.531,-13.184,-16.602,0.000,0
1749790809.225,-25.879,-16.113,-8.789,-16.602,0.000,0
1749790809.229,-25.879,-5.371,-6.836,-13.672,0.000,0
1749790809.233,-22.461,-8.301,-10.254,-8.301,0.000,0
1749790809.237,-7.812,-13.184,-11.719,-7.324,0.000,0
1749790809.241,-13.184,-7.812,-15.137,-12.207,0.000,0
1749790809.245,-22.461,-8.301,-15.625,-7.324,0.000,0
1749790809.249,-14.160,-19.531,-14.648,-0.488,0.000,0
1749790809.253,-4.883,-18.066,-13.184,0.000,0.000,0
1749790809.257,-3.906,-13.184,-7.812,6.348,0.000,0
1749790809.260,-3.418,-20.020,-9.766,0.488,0.000,0
1749790809.264,-8.301,-26.367,-16.602,-9.277,0.000,0
1749790809.268,-15.625,-23.926,-18.066,-8.789,0.000,0
1749790809.272,-1.953,-16.602,-13.184,-0.488,0.000,0
1749790809.276,-3.906,-22.949,-18.066,-5.859,0.000,0
1749790809.280,-2.441,-17.578,-15.625,3.418,0.000,0
1749790809.284,9.766,-7.812,-11.719,7.812,0.000,0
1749790809.288,-0.488,-14.648,-10.254,8.789,0.000,0
1749790809.291,1.953,-15.137,-8.789,7.812,0.000,0
1749790809.295,-8.301,-18.555,-13.672,-0.977,0.000,0
1749790809.300,-17.578,-22.461,-9.277,3.906,0.000,0
1749790809.304,-8.301,-24.902,-7.812,-0.977,0.000,0
1749790809.307,-20.020,-26.855,-14.160,-5.371,0.000,0
1749790809.311,-20.996,-17.578,-11.719,0.000,0.000,0
1749790809.315,-5.859,-15.625,-4.395,10.742,0.000,0
1749790809.319,-21.973,-19.531,-8.789,0.488,0.000,0
1749790809.323,-26.367,-20.508,-8.789,-4.395,0.000,0
1749790809.327,-7.812,-7.812,5.371,8.301,0.000,0
1749790809.331,-8.301,-5.859,6.348,2.441,0.000,0
1749790809.335,-26.367,-18.555,-5.859,-6.836,0.000,0
1749790809.338,-28.809,-19.043,-7.812,-3.418,0.000,0
1749790809.342,-13.184,-20.020,-8.789,-2.441,0.000,0
1749790809.347,-24.414,-15.625,-13.184,-7.812,0.000,0
1749790809.350,-25.391,-20.020,-11.230,-10.254,0.000,0
1749790809.354,-12.207,-32.715,-9.766,-4.883,0.000,0
1749790809.358,-16.602,-12.695,-8.301,-2.930,0.000,0
1749790809.362,-19.531,-9.766,-8.789,-6.348,0.000,0
1749790809.366,-22.949,-18.555,-13.184,-4.883,0.000,0
1749790809.370,-36.133,-21.484,-15.625,-9.766,0.000,0
1749790809.374,-33.691,-20.508,-12.695,-9.277,0.000,0
1749790809.378,-25.391,-19.531,-9.766,0.000,0.000,0
1749790809.381,-15.625,-17.090,-2.930,1.953,0.000,0
1749790809.385,-11.230,-20.996,-1.953,0.977,0.000,0
1749790809.389,-16.113,-20.020,-6.836,0.488,0.000,0
1749790809.393,-14.648,-21.973,-5.859,-4.883,0.000,0
1749790809.397,-19.531,-24.414,-5.371,-15.625,0.000,0
1749790809.401,-20.020,-22.949,-5.371,-12.207,0.000,0
1749790809.405,-19.043,-23.926,-9.766,-9.277,0.000,0
1749790809.409,-24.902,-15.137,-5.859,-6.836,0.000,0
1749790809.413,-21.484,-20.996,-2.441,-1.465,0.000,0
1749790809.417,-5.859,-29.297,-3.418,6.348,0.000,0
1749790809.421,-0.977,-23.438,-6.836,5.859,0.000,0
1749790809.425,-11.719,-17.090,-9.277,-3.418,0.000,0
1749790809.428,-10.254,-16.113,-13.184,-0.488,0.000,0
1749790809.432,7.324,-15.137,-14.160,1.465,0.000,0
1749790809.436,7.324,-12.695,-12.207,0.488,0.000,0
1749790809.440,-0.977,-13.184,-12.695,4.883,0.000,0
1749790809.444,-7.324,-20.020,-12.695,-3.906,0.000,0
1749790809.448,-11.230,-22.949,-17.578,-10.254,0.000,0
1749790809.452,-7.812,-27.344,-17.578,0.000,0.000,0
1749790809.456,-13.184,-30.762,-14.160,-1.465,0.000,0
1749790809.460,-10.254,-35.156,-12.695,-3.906,0.000,0
1749790809.464,-2.441,-31.250,-10.742,0.977,0.000,0
1749790809.468,-5.859,-26.367,-9.277,4.395,0.000,0
1749790809.471,-0.488,-23.926,-7.812,2.441,0.000,0
1749790809.475,6.836,-18.066,-3.906,4.883,0.000,0
1749790809.479,1.953,-25.391,-5.859,2.441,0.000,0
1749790809.483,5.859,-27.344,-10.254,1.953,0.000,0
1749790809.487,4.883,-20.996,-7.324,9.277,0.000,0
1749790809.491,-2.930,-20.508,-6.348,9.766,0.000,0
1749790809.495,2.441,-25.879,-5.859,18.555,0.000,0
1749790809.499,4.883,-24.902,-5.371,20.996,0.000,0
1749790809.503,3.418,-21.484,-6.348,17.090,0.000,0
1749790809.507,2.930,-22.461,-4.883,17.090,0.000,0
1749790809.510,-4.395,-22.461,-3.906,18.066,0.000,0
1749790809.514,4.395,-20.020,-4.883,18.555,0.000,0
1749790809.518,14.648,-20.020,-7.812,20.020,0.000,0
1749790809.522,4.883,-22.461,-8.789,13.672,0.000,0
1749790809.526,11.719,-19.043,-10.254,11.719,0.000,0
1749790809.530,10.254,-18.066,-11.719,15.137,0.000,0
1749790809.534,9.277,-20.508,-8.301,14.160,0.000,0
1749790809.538,9.277,-21.484,-9.277,7.324,0.000,0
1749790809.542,3.906,-22.949,-18.555,5.371,0.000,0
1749790809.546,5.371,-28.320,-16.113,9.766,0.000,0
1749790809.550,-0.488,-28.809,-15.625,4.883,0.000,0
1749790809.553,-11.230,-34.180,-10.742,3.418,0.000,0
1749790809.557,-7.324,-32.715,-4.395,4.395,0.000,0
1749790809.561,-3.418,-30.762,-12.207,-2.930,0.000,0
1749790809.565,-2.441,-28.320,-17.090,-0.488,0.000,0
1749790809.569,-0.488,-20.996,-15.137,7.812,0.000,0
1749790809.573,-13.184,-24.902,-17.090,-1.953,0.000,0
1749790809.577,-6.348,-27.344,-16.602,-9.766,0.000,0
1749790809.581,-8.789,-27.832,-14.160,-2.930,0.000,0
1749790809.585,-9.277,-20.508,-17.090,-1.465,0.000,0
1749790809.589,-3.906,-16.113,-16.602,-1.465,0.000,0
1749790809.592,-4.883,-15.137,-12.695,2.441,0.000,0
1749790809.596,0.000,-19.531,-10.742,2.441,0.000,0
1749790809.600,-4.883,-27.344,-11.719,2.930,0.000,0
1749790809.604,-3.906,-30.273,-16.602,0.488,0.000,0
1749790809.608,-12.695,-28.320,-21.484,-7.812,0.000,0
1749790809.612,-16.113,-22.461,-20.508,-1.953,0.000,0
1749790809.616,-1.953,-21.484,-13.672,11.230,0.000,0
1749790809.620,-0.488,-11.719,-14.160,4.883,0.000,0
1749790809.623,2.930,-11.230,-11.719,4.883,0.000,0
1749790809.628,2.441,-21.973,-4.883,21.973,0.000,0
1749790809.631,2.930,-23.438,-8.789,11.719,0.000,0
1749790809.635,5.859,-23.926,-9.766,8.301,0.000,0
1749790809.639,1.465,-18.066,-6.348,12.207,0.000,0
1749790809.643,5.859,-14.160,-5.371,10.254,0.000,0
1749790809.647,-3.906,-20.020,-5.371,10.742,0.000,0
1749790809.651,-11.719,-24.902,-6.348,12.695,0.000,0
1749790809.655,-1.953,-26.367,-5.859,9.766,0.000,0
1749790809.659,-5.371,-26.367,-9.277,5.371,0.000,0
1749790809.663,0.488,-18.066,-10.742,7.324,0.000,0
1749790809.666,10.742,-13.184,-6.348,11.230,0.000,0
1749790809.670,7.324,-14.160,-5.371,10.254,0.000,0
1749790809.675,1.465,-10.254,-8.301,8.789,0.000,0
1749790809.678,-3.906,-15.137,-11.230,3.906,0.000,0
1749790809.682,-5.371,-20.508,-5.859,3.418,0.000,0
1749790809.686,-3.418,-19.043,-3.418,8.789,0.000,0
1749790809.690,-1.953,-18.066,-2.441,7.324,0.000,0
1749790809.694,3.418,-16.602,-1.953,11.230,0.000,0
1749790809.698,0.000,-19.043,-9.277,8.789,0.000,0
1749790809.702,-2.930,-22.949,-16.602,0.000,0.000,0
1749790809.706,2.441,-18.555,-16.113,9.766,0.000,0
1749790809.709,-2.930,-23.926,-6.836,9.277,0.000,0
1749790809.713,-9.766,-34.668,2.930,1.953,0.000,0
1749790809.717,-14.648,-35.645,3.906,8.301,0.000,0
1749790809.721,-17.578,-34.180,-0.488,4.883,0.000,0
1749790809.725,-14.648,-30.762,-0.488,-3.418,0.000,0
1749790809.729,-10.254,-35.645,-5.859,-3.906,0.000,0
1749790809.733,-12.207,-39.062,-10.254,-1.953,0.000,0
1749790809.737,-14.160,-33.203,-11.719,-3.906,0.000,0
1749790809.741,-10.254,-32.227,-14.160,-0.488,0.000,0
1749790809.745,-3.906,-31.250,-13.184,3.906,0.000,0
1749790809.749,-12.695,-36.133,-11.719,1.465,0.000,0
1749790809.753,-21.973,-41.016,-12.207,1.953,0.000,0
1749790809.756,-8.789,-35.645,-18.555,3.418,0.000,0
1749790809.760,-19.531,-32.715,-19.531,-0.977,0.000,0
1749790809.764,-17.090,-34.668,-14.160,0.488,0.000,0
1749790809.768,-9.277,-38.574,-16.113,-3.906,0.000,0
1749790809.772,-7.812,-41.016,-16.113,-2.930,0.000,0
1749790809.776,-6.836,-34.180,-16.113,-3.418,0.000,0
1749790809.780,-12.207,-37.109,-19.531,-9.277,0.000,0
1749790809.784,-10.254,-45.410,-20.020,-2.930,0.000,0
1749790809.788,-9.277,-42.969,-19.531,5.371,0.000,0
1749790809.792,-9.277,-40.039,-17.090,-0.977,0.000,0
1749790809.796,-13.184,-41.504,-17.578,-2.930,0.000,0
1749790809.799,-9.766,-39.551,-17.090,2.441,0.000,0
1749790809.803,-8.789,-35.645,-15.137,8.301,0.000,0
1749790809.807,-9.277,-32.227,-14.648,10.742,0.000,0
1749790809.811,-3.418,-29.785,-11.230,7.812,0.000,0
1749790809.815,3.906,-26.367,-8.301,8.301,0.000,0
1749790809.819,13.184,-20.508,-11.719,6.836,0.000,0
1749790809.823,6.348,-19.531,-16.113,13.672,0.000,0
1749790809.827,-0.488,-24.414,-12.695,9.766,0.000,0
1749790809.831,3.418,-33.691,-12.207,-0.488,0.000,0
1749790809.835,6.348,-30.273,-11.719,6.836,0.000,0
1749790809.839,10.742,-27.832,-9.766,5.859,0.000,0
1749790809.842,11.230,-30.273,-13.672,1.465,0.000,0
1749790809.846,8.789,-29.297,-15.625,0.000,0.000,0
1749790809.850,-0.488,-31.738,-16.602,-3.906,0.000,0
1749790809.854,-8.301,-32.227,-20.508,0.000,0.000,0
1749790809.858,-10.742,-32.227,-26.367,-1.953,0.000,0
1749790809.862,-0.488,-31.250,-28.320,-11.719,0.000,0
1749790809.866,-1.953,-26.367,-21.484,-16.113,0.000,0
1749790809.870,0.977,-22.949,-19.531,-9.277,0.000,0
1749790809.874,3.418,-28.320,-17.578,-7.324,0.000,0
1749790809.878,-5.859,-32.227,-14.648,-9.277,0.000,0
1749790809.882,-6.348,-31.738,-19.043,-4.883,0.000,0
1749790809.885,-4.395,-30.762,-18.066,-2.441,0.000,0
1749790809.889,2.441,-28.809,-12.207,1.465,0.000,0
1749790809.893,-5.371,-28.320,-14.160,-0.488,0.000,0
1749790809.897,-1.953,-25.879,-14.160,-3.418,0.000,0
1749790809.901,3.906,-26.855,-12.207,-0.977,0.000,0
1749790809.905,-4.883,-28.809,-9.766,2.441,0.000,0
1749790809.909,-4.883,-30.762,-6.348,2.930,0.000,0
1749790809.913,2.930,-32.715,-9.277,-0.977,0.000,0
1749790809.917,3.418,-30.762,-18.066,-3.906,0.000,0
1749790809.921,2.930,-29.297,-17.090,-5.371,0.000,0
1749790809.924,2.930,-37.109,-13.672,-6.348,0.000,0
1749790809.928,1.465,-38.086,-16.113,-4.395,0.000,0
1749790809.932,-0.488,-37.109,-12.695,0.977,0.000,0
1749790809.936,-4.395,-41.992,-15.625,1.465,0.000,0
1749790809.940,-7.812,-41.016,-20.996,-4.883,0.000,0
1749790809.944,-7.324,-37.598,-16.602,-8.301,0.000,0
1749790809.948,-9.766,-33.691,-19.043,-9.766,0.000,0
1749790809.952,-14.160,-33.203,-21.973,-7.812,0.000,0
1749790809.956,-5.371,-33.203,-17.578,-3.906,0.000,0
1749790809.960,-5.859,-34.180,-15.137,-7.324,0.000,0
1749790809.964,-6.348,-32.227,-17.090,-5.371,0.000,0
1749790809.967,6.836,-27.832,-17.578,1.465,0.000,0
1749790809.971,11.230,-28.320,-16.113,3.906,0.000,0
1749790809.975,1.953,-24.902,-19.531,-6.348,0.000,0
1749790809.979,-4.395,-24.902,-19.531,-4.883,0.000,0
1749790809.983,-5.371,-27.832,-19.043,-4.883,0.000,0
1749790809.987,-2.930,-25.879,-16.602,-8.789,0.000,0
1749790809.991,-6.836,-26.855,-15.137,-7.324,0.000,0
1749790809.995,-9.277,-28.809,-23.926,-9.277,0.000,0
1749790809.998,-7.812,-26.855,-25.391,-7.812,0.000,0
1749790810.003,-6.836,-29.785,-23.438,-5.859,0.000,0
1749790810.006,-6.836,-30.273,-26.855,-10.742,0.000,0
1749790810.010,-13.672,-33.691,-29.297,-14.648,0.000,0
1749790810.014,-13.184,-38.086,-31.250,-12.207,0.000,0
1749790810.018,-4.395,-28.809,-24.902,-7.324,0.000,0
1749790810.022,-0.977,-22.461,-17.090,-7.324,0.000,0
1749790810.026,1.953,-26.855,-16.602,-9.277,0.000,0
1749790810.030,-9.766,-30.762,-18.066,-7.324,0.000,0
1749790810.034,-8.301,-30.762,-22.461,-4.883,0.000,0
1749790810.037,-2.441,-34.180,-23.926,-6.348,0.000,0
1749790810.041,-10.254,-32.715,-22.949,-8.789,0.000,0
1749790810.045,-10.254,-28.320,-22.461,-12.207,0.000,0
1749790810.050,-6.348,-28.320,-24.414,-19.043,0.000,0
1749790810.053,3.906,-28.809,-31.250,-8.301,0.000,0
1749790810.057,10.742,-29.297,-25.879,11.230,0.000,0
1749790810.061,-6.836,-37.598,-16.602,4.883,0.000,0
1749790810.065,-23.926,-45.410,-10.742,-2.930,0.000,0
1749790810.069,-16.113,-44.922,-6.348,1.465,0.000,0
1749790810.073,-8.789,-50.293,-5.859,6.348,0.000,0
1749790810.077,-21.973,-60.059,-3.418,1.953,0.000,0
1749790810.081,-31.738,-72.266,-0.977,-7.812,0.000,0
1749790810.084,-32.227,-76.172,-4.395,-9.277,0.000,0
1749790810.088,-34.668,-73.242,-6.348,-4.883,0.000,0
1749790810.092,-32.715,-72.754,-5.371,-7.324,0.000,0
1749790810.096,-27.832,-74.219,-2.441,-7.812,0.000,0
1749790810.100,-28.809,-73.730,-8.789,-9.277,0.000,0
1749790810.104,-31.738,-69.824,-12.207,-18.555,0.000,0
1749790810.108,-33.203,-68.359,-12.207,-15.625,0.000,0
1749790810.112,-29.785,-68.359,-19.043,-7.324,0.000,0
1749790810.116,-25.391,-67.871,-14.648,1.465,0.000,0
1749790810.120,-22.949,-64.453,-12.695,1.465,0.000,0
1749790810.124,-20.020,-62.500,-15.137,-1.465,0.000,0
1749790810.127,-20.508,-59.570,-15.137,-0.977,0.000,0
1749790810.131,-21.973,-59.082,-12.695,1.953,0.000,0
1749790810.135,-21.484,-58.105,-12.695,-0.977,0.000,0
1749790810.139,-21.484,-53.711,-11.719,-1.953,0.000,0
1749790810.143,-17.090,-51.758,-12.695,-0.488,0.000,0
1749790810.147,-8.301,-54.199,-13.672,1.953,0.000,0
1749790810.151,-2.930,-51.270,-13.672,2.441,0.000,0
1749790810.155,-9.766,-49.805,-16.602,-2.930,0.000,0
1749790810.159,-10.254,-51.270,-16.602,-4.883,0.000,0
1749790810.163,-9.766,-50.293,-20.508,-4.395,0.000,0
1749790810.167,-6.348,-45.898,-20.508,-1.465,0.000,0
1749790810.170,-6.348,-49.316,-21.484,-4.883,0.000,0
1749790810.174,-5.859,-51.270,-20.996,-8.789,0.000,0
1749790810.178,-11.719,-47.363,-19.043,-8.301,0.000,0
1749790810.182,-13.672,-46.387,-16.113,-8.301,0.000,0
1749790810.186,-2.930,-47.363,-14.160,-6.348,0.000,0
1749790810.190,-1.953,-41.992,-18.555,-9.277,0.000,0
1749790810.194,-8.301,-39.551,-15.137,-6.836,0.000,0
1749790810.198,-11.719,-41.992,-13.672,0.000,0.000,0
1749790810.202,-6.348,-38.574,-14.648,2.930,0.000,0
1749790810.206,-2.930,-38.086,-17.090,-4.883,0.000,0
1749790810.210,-4.883,-38.086,-19.043,-8.789,0.000,0
1749790810.214,-8.789,-34.668,-19.043,-5.859,0.000,0
1749790810.217,-10.742,-33.691,-25.879,-13.672,0.000,0
1749790810.221,-9.277,-38.086,-28.809,-15.137,0.000,0
1749790810.225,-10.742,-36.133,-28.809,-7.324,0.000,0
1749790810.229,-20.508,-32.715,-30.273,-8.301,0.000,0
1749790810.233,-13.184,-36.621,-32.715,-13.672,0.000,0
1749790810.237,-9.277,-36.621,-31.250,-13.184,0.000,0
1749790810.241,-15.625,-38.086,-26.367,-12.695,0.000,0
1749790810.245,-3.906,-34.668,-24.902,-13.672,0.000,0
1749790810.249,4.395,-30.273,-30.762,-11.719,0.000,0
1749790810.253,0.977,-28.809,-34.180,-6.348,0.000,0
1749790810.256,-3.906,-24.902,-29.785,-4.883,0.000,0
1749790810.260,-3.418,-25.391,-30.273,-7.812,0.000,0
1749790810.264,-5.859,-29.785,-32.227,0.977,0.000,0
1749790810.268,-16.113,-32.715,-29.785,0.977,0.000,0
1749790810.272,-22.461,-37.598,-23.926,-6.836,0.000,0
1749790810.276,-24.414,-37.109,-20.996,-5.859,0.000,0
1749790810.280,-22.461,-37.109,-26.855,-9.766,0.000,0
1749790810.284,-21.484,-35.156,-28.320,-18.066,0.000,0
1749790810.288,-24.902,-31.250,-25.391,-20.020,0.000,0
1749790810.292,-23.926,-32.715,-25.879,-18.066,0.000,0
1749790810.296,-24.414,-37.109,-29.785,-18.066,0.000,0
1749790810.299,-27.344,-39.062,-30.273,-16.113,0.000,0
1749790810.303,-20.020,-36.133,-24.414,-12.207,0.000,0
1749790810.307,-12.695,-30.273,-21.973,-15.625,0.000,0
1749790810.311,-9.766,-32.715,-25.879,-7.324,0.000,0
1749790810.315,-14.160,-36.621,-24.902,-2.930,0.000,0
1749790810.319,-10.742,-32.227,-22.461,-4.395,0.000,0
1749790810.323,-9.766,-25.879,-22.949,-1.953,0.000,0
1749790810.327,-14.648,-24.902,-24.414,-1.953,0.000,0
1749790810.331,-13.672,-26.367,-29.785,-3.906,0.000,0
1749790810.335,-13.184,-30.762,-31.738,-16.113,0.000,0
1749790810.338,-11.230,-39.062,-22.949,-13.184,0.000,0
1749790810.342,-8.789,-37.109,-21.484,-6.836,0.000,0
1749790810.346,-12.695,-31.250,-22.461,-9.277,0.000,0
1749790810.350,-13.672,-31.738,-23.438,-4.395,0.000,0
1749790810.354,-8.301,-32.715,-26.855,-6.348,0.000,0
1749790810.358,-11.719,-29.297,-26.855,-11.719,0.000,0
1749790810.362,-9.277,-31.738,-30.762,-14.160,0.000,0
1749790810.366,-17.090,-37.598,-35.645,-6.348,0.000,0
1749790810.370,-23.926,-36.133,-33.691,-10.742,0.000,0
1749790810.373,-18.066,-34.180,-34.668,-16.602,0.000,0
1749790810.378,-12.695,-35.156,-36.621,-9.766,0.000,0
1749790810.382,-7.812,-34.668,-35.645,-12.695,0.000,0
1749790810.385,-11.230,-34.668,-33.691,-12.695,0.000,0
1749790810.389,-12.695,-36.621,-29.785,-13.184,0.000,0
1749790810.393,-7.324,-35.156,-26.855,-10.254,0.000,0
1749790810.397,-7.812,-30.273,-23.438,-5.371,0.000,0
1749790810.401,-3.418,-28.809,-22.949,-9.766,0.000,0
1749790810.405,1.953,-30.273,-25.879,-11.230,0.000,0
1749790810.409,-4.395,-31.738,-28.809,-9.277,0.000,0
1749790810.413,-3.906,-34.668,-27.832,-12.207,0.000,0
1749790810.416,-7.324,-29.297,-26.855,-15.137,0.000,0
1749790810.420,-6.836,-19.531,-28.320,-16.602,0.000,0
1749790810.425,0.000,-21.973,-25.879,-6.836,0.000,0
1749790810.429,5.859,-22.461,-24.902,-9.277,0.000,0
1749790810.432,9.766,-22.461,-23.438,-10.254,0.000,0
1749790810.436,-10.742,-32.227,-25.391,-10.742,0.000,0
1749790810.440,-24.414,-35.645,-29.297,-23.926,0.000,0
1749790810.444,-11.719,-31.250,-27.832,-20.020,0.000,0
1749790810.448,-0.977,-30.273,-26.855,-8.789,0.000,0
1749790810.452,-3.418,-31.738,-21.484,-2.441,0.000,0
1749790810.456,-7.812,-31.738,-19.531,-3.418,0.000,0
1749790810.460,-5.859,-33.203,-28.320,-2.930,0.000,0
1749790810.463,-2.930,-31.738,-33.691,-2.930,0.000,0
1749790810.467,-5.371,-31.250,-36.133,-9.766,0.000,0
1749790810.472,1.465,-30.762,-37.109,-6.348,0.000,0
1749790810.475,6.348,-29.297,-35.156,-0.977,0.000,0
1749790810.479,1.465,7.324,-32.715,-2.930,0.000,0
1749790810.483,6.348,51.270,-32.227,-4.883,0.000,0
1749790810.487,8.789,51.270,-26.367,-9.277,0.000,0
1749790810.491,5.859,46.875,-23.438,-12.207,0.000,0
1749790810.495,4.883,41.016,-24.414,-16.113,0.000,0
1749790810.499,7.324,38.086,-24.902,-15.625,0.000,0
1749790810.503,5.371,35.645,-33.691,-11.719,0.000,0
1749790810.506,6.836,30.273,-29.785,-15.137,0.000,0
1749790810.510,13.184,31.738,-25.391,-11.719,0.000,0
1749790810.514,1.953,26.855,-31.250,-10.254,0.000,0
1749790810.514,1.953,26.855,-31.250,-10.254,0.000,0
1749790810.518,-6.348,21.484,-29.297,-13.184,0.000,0
1749790810.522,-9.766,18.066,-25.391,-12.207,0.000,0
1749790810.526,-9.766,15.137,-27.344,-15.137,0.000,0
1749790810.530,-10.742,14.648,-30.273,-19.043,0.000,0
1749790810.534,-7.812,10.742,-32.715,-10.254,0.000,0
1749790810.538,-1.465,9.766,-31.250,-8.301,0.000,0
1749790810.542,-6.836,13.184,-30.762,-18.066,0.000,0
1749790810.546,-4.883,5.859,-29.785,-18.555,0.000,0
1749790810.549,-1.465,-0.488,-24.414,-9.766,0.000,0
1749790810.553,-10.254,2.930,-19.043,-6.348,0.000,0
1749790810.557,-10.742,0.977,-17.578,-9.277,0.000,0
1749790810.561,-5.859,1.465,-21.484,-6.348,0.000,0
1749790810.565,-9.766,2.441,-26.367,-10.254,0.000,0
1749790810.569,-6.836,-2.441,-24.902,-13.672,0.000,0
1749790810.573,-4.395,0.488,-25.879,-6.348,0.000,0
1749790810.577,-6.836,0.488,-29.297,-4.395,0.000,0
1749790810.581,-0.977,-0.488,-24.414,-4.883,0.000,0
1749790810.585,1.953,-1.465,-24.902,-6.836,0.000,0
1749790810.589,-5.859,-4.883,-25.391,-10.742,0.000,0
1749790810.592,-10.254,-8.789,-28.320,-14.160,0.000,0
1749790810.596,-12.207,-10.742,-27.344,-12.207,0.000,0
1749790810.600,-12.695,-9.766,-26.367,-5.859,0.000,0
1749790810.604,-12.207,-8.301,-23.926,-14.648,0.000,0
1749790810.608,-16.602,-10.254,-22.461,-16.113,0.000,0
1749790810.612,-22.949,-13.672,-29.785,-10.254,0.000,0
1749790810.616,-24.414,-19.043,-29.297,-18.066,0.000,0
1749790810.620,-20.020,-19.531,-26.367,-21.484,0.000,0
1749790810.624,-20.508,-7.324,-27.832,-19.043,0.000,0
1749790810.628,-25.391,-6.348,-28.320,-14.160,0.000,0
1749790810.632,-19.043,-13.184,-29.785,-16.602,0.000,0
1749790810.635,-6.348,-10.742,-26.855,-16.602,0.000,0
1749790810.639,-14.160,-13.672,-24.902,-20.020,0.000,0
1749790810.643,-21.484,-15.137,-25.391,-23.926,0.000,0
1749790810.647,-21.484,-11.719,-20.996,-21.973,0.000,0
1749790810.651,-19.531,-14.160,-22.949,-19.531,0.000,0
1749790810.655,-22.949,-19.531,-31.738,-22.461,0.000,0
1749790810.659,-19.043,-16.113,-35.156,-20.020,0.000,0
1749790810.663,-19.043,-12.695,-34.668,-17.090,0.000,0
1749790810.667,-20.996,-14.160,-35.645,-16.602,0.000,0
1749790810.671,-16.602,-15.625,-32.715,-16.602,0.000,0
1749790810.675,-15.137,-16.602,-31.738,-20.996,0.000,0
1749790810.678,-12.695,-15.625,-36.621,-19.043,0.000,0
1749790810.682,-14.648,-12.695,-37.598,-12.207,0.000,0
1749790810.686,-12.695,-13.672,-32.227,-23.438,0.000,0
1749790810.690,-14.648,-18.066,-37.598,-32.227,0.000,0
1749790810.694,-8.301,-15.625,-44.922,-21.973,0.000,0
1749790810.698,-7.812,-18.555,-42.969,-11.230,0.000,0
1749790810.702,-29.297,-23.926,-33.203,-24.902,0.000,0
1749790810.706,-31.738,-23.926,-25.879,-28.320,0.000,0
1749790810.710,-25.879,-26.367,-27.832,-18.066,0.000,0
1749790810.714,-24.902,-29.785,-24.414,-20.020,0.000,0
1749790810.717,-24.414,-33.691,-19.531,-17.090,0.000,0
1749790810.721,-26.855,-34.180,-21.973,-18.066,0.000,0
1749790810.725,-27.832,-32.227,-21.973,-26.367,0.000,0
1749790810.729,-22.949,-27.344,-21.973,-22.461,0.000,0
1749790810.733,-19.531,-24.414,-24.902,-13.672,0.000,0
1749790810.737,-26.855,-26.855,-28.809,-16.602,0.000,0
1749790810.741,-22.949,-23.438,-27.832,-17.578,0.000,0
1749790810.745,-12.207,-28.809,-24.414,-17.578,0.000,0
1749790810.748,-19.043,-33.203,-27.832,-15.137,0.000,0
1749790810.753,-19.043,-25.879,-25.879,-14.160,0.000,0
1749790810.757,-10.254,-25.391,-24.902,-19.531,0.000,0
1749790810.761,-18.066,-26.367,-29.785,-22.461,0.000,0
1749790810.764,-29.785,-24.414,-32.715,-21.484,0.000,0
1749790810.768,-29.297,-26.367,-31.250,-23.926,0.000,0
1749790810.772,-28.809,-27.344,-31.250,-28.809,0.000,0
1749790810.776,-25.879,-23.926,-29.785,-25.879,0.000,0
1749790810.780,-21.973,-26.367,-28.809,-21.973,0.000,0
1749790810.784,-22.949,-32.227,-28.320,-25.391,0.000,0
1749790810.788,-22.949,-30.762,-24.902,-22.461,0.000,0
1749790810.792,-24.902,-29.297,-26.855,-24.902,0.000,0
1749790810.795,-31.250,-31.738,-25.391,-29.785,0.000,0
1749790810.800,-21.484,-32.715,-20.996,-27.832,0.000,0
1749790810.804,-21.484,-31.250,-23.438,-28.809,0.000,0
1749790810.807,-20.996,-30.273,-26.855,-26.367,0.000,0
1749790810.811,-8.301,-28.809,-26.855,-23.926,0.000,0
1749790810.815,-12.207,-25.879,-28.809,-25.391,0.000,0
1749790810.819,-16.602,-21.484,-29.297,-22.949,0.000,0
1749790810.823,-8.789,-20.020,-26.855,-22.461,0.000,0
1749790810.827,-16.602,-24.902,-27.832,-22.461,0.000,0
1749790810.831,-28.320,-27.344,-30.762,-22.461,0.000,0
1749790810.835,-25.391,-23.926,-26.855,-27.344,0.000,0
1749790810.839,-28.809,-24.902,-27.832,-25.391,0.000,0
1749790810.842,-30.273,-25.879,-31.738,-25.391,0.000,0
1749790810.847,-32.227,-25.391,-32.227,-31.738,0.000,0
1749790810.851,-35.156,-25.391,-30.762,-35.645,0.000,0
1749790810.854,-26.855,-25.879,-29.785,-26.855,0.000,0
1749790810.858,-18.555,-21.484,-29.297,-18.066,0.000,0
1749790810.862,-21.973,-20.996,-27.832,-27.344,0.000,0
1749790810.866,-27.344,-22.461,-28.809,-31.250,0.000,0
1749790810.870,-22.461,-21.484,-29.785,-21.973,0.000,0
1749790810.874,-24.414,-24.414,-33.203,-24.902,0.000,0
1749790810.878,-35.156,-26.367,-36.133,-33.203,0.000,0
1749790810.882,-35.156,-28.320,-37.109,-34.180,0.000,0
1749790810.885,-37.598,-28.809,-38.086,-38.086,0.000,0
1749790810.889,-38.574,-22.949,-36.621,-42.480,0.000,0
1749790810.894,-27.344,-22.461,-32.715,-38.086,0.000,0
1749790810.897,-22.949,-25.879,-32.227,-28.320,0.000,0
1749790810.901,-28.320,-26.367,-35.156,-25.879,0.000,0
1749790810.905,-25.879,-24.414,-33.691,-30.273,0.000,0
1749790810.909,-16.113,-26.367,-31.738,-32.715,0.000,0
1749790810.913,-20.020,-27.832,-32.227,-33.691,0.000,0
1749790810.917,-20.996,-23.438,-30.762,-30.273,0.000,0
1749790810.921,-23.438,-24.414,-29.297,-33.691,0.000,0
1749790810.925,-18.066,-25.391,-27.344,-31.738,0.000,0
1749790810.928,-17.578,-22.949,-28.809,-27.344,0.000,0
1749790810.932,-23.438,-28.320,-31.250,-31.250,0.000,0
1749790810.936,-26.855,-30.762,-30.762,-34.668,0.000,0
1749790810.940,0.000,-26.855,-28.320,-32.227,0.000,0
1749790810.944,0.000,-30.273,-26.367,-29.297,0.000,0
1749790810.948,0.000,-31.738,-24.902,-24.902,0.000,0
1749790810.952,0.000,-27.344,-29.297,-23.926,0.000,0
1749790810.956,0.000,-27.344,-30.273,-23.926,0.000,0
1749790810.960,0.000,-28.809,-26.367,-23.438,0.000,0
1749790810.964,0.000,-27.344,-27.344,-23.438,0.000,0
1749790810.968,0.000,-30.273,-26.367,-25.391,0.000,0
1749790810.971,0.000,-38.574,-29.785,-27.344,0.000,0
1749790810.975,0.000,-38.086,-30.273,-33.203,0.000,0
1749790810.979,0.000,-29.297,-29.785,-38.086,0.000,0
1749790810.983,0.000,-29.297,-29.297,-33.203,0.000,0
1749790810.987,-22.949,-12.207,-27.832,-29.785,0.000,0
1749790810.991,-26.367,20.508,-35.645,-28.320,0.000,0
1749790810.995,-27.344,28.809,-37.598,-24.902,0.000,0
1749790810.999,-22.949,32.227,-34.180,-18.555,0.000,0
1749790811.003,-19.043,38.086,-34.180,-13.184,0.000,0
1749790811.007,-20.508,34.180,-35.645,-15.137,0.000,0
1749790811.011,-21.973,27.344,-30.762,-18.555,0.000,0
1749790811.014,-18.066,19.531,-29.785,-19.531,0.000,0
1749790811.018,-14.160,16.113,-34.180,-23.438,0.000,0
1749790811.022,-20.020,15.625,-33.203,-23.926,0.000,0
1749790811.026,-22.949,6.836,-30.762,-22.949,0.000,0
1749790811.030,-14.648,7.812,-28.320,-19.531,0.000,0
1749790811.034,-18.555,11.230,-26.855,-17.090,0.000,0
1749790811.038,-21.973,7.812,-28.320,-25.391,0.000,0
1749790811.042,-15.625,10.742,-31.250,-25.391,0.000,0
1749790811.046,-15.625,10.742,-29.297,-24.414,0.000,0
1749790811.050,-22.949,2.441,-35.156,-29.785,0.000,0
1749790811.054,-24.414,-3.906,-39.062,-28.809,0.000,0
1749790811.057,-17.578,-2.930,-32.715,-26.367,0.000,0
1749790811.061,-14.160,-3.906,-30.762,-20.996,0.000,0
1749790811.065,-14.648,-5.371,-29.785,-19.531,0.000,0
1749790811.069,-8.789,-3.906,-31.738,-15.625,0.000,0
1749790811.073,-17.578,-3.906,-36.621,-21.973,0.000,0
1749790811.077,-23.438,-7.812,-35.645,-27.832,0.000,0
1749790811.081,-23.438,-12.207,-35.645,-24.902,0.000,0
1749790811.085,-24.414,-14.160,-38.574,-23.926,0.000,0
1749790811.089,-18.066,-14.160,-36.621,-20.020,0.000,0
1749790811.093,-20.020,-14.648,-35.156,-15.625,0.000,0
1749790811.096,-20.996,-17.578,-34.180,-12.207,0.000,0
1749790811.100,-20.020,-16.113,-33.203,-19.043,0.000,0
1749790811.104,-9.766,-11.719,-30.273,-21.484,0.000,0
1749790811.108,-12.207,-11.230,-25.391,-20.020,0.000,0
1749790811.112,-21.973,-19.531,-28.809,-14.160,0.000,0
1749790811.116,-18.555,-23.926,-34.668,-15.137,0.000,0
1749790811.120,-23.438,-19.043,-37.109,-22.461,0.000,0
1749790811.124,-21.973,-18.066,-35.156,-19.043,0.000,0
1749790811.128,-18.066,-21.973,-31.738,-12.695,0.000,0
1749790811.132,-21.973,-19.531,-30.762,-15.137,0.000,0
1749790811.135,-25.879,-20.020,-30.762,-21.973,0.000,0
1749790811.139,-23.438,-23.926,-27.832,-24.414,0.000,0
1749790811.143,-22.461,-23.438,-30.762,-21.484,0.000,0
1749790811.147,-19.531,-22.949,-30.273,-19.531,0.000,0
1749790811.151,-15.137,-24.902,-32.715,-24.414,0.000,0
1749790811.155,-14.160,-24.414,-38.574,-26.855,0.000,0
1749790811.159,-23.926,-23.438,-42.480,-28.320,0.000,0
1749790811.163,-23.438,-20.020,-42.480,-25.391,0.000,0
1749790811.167,-20.508,-19.043,-38.086,-22.461,0.000,0
1749790811.170,-22.949,-23.438,-37.109,-24.902,0.000,0
1749790811.175,-19.043,-22.461,-35.645,-30.273,0.000,0
1749790811.179,-20.508,-19.531,-30.762,-26.367,0.000,0
1749790811.182,-16.113,-20.996,-31.250,-20.996,0.000,0
1749790811.186,-15.137,-22.461,-32.715,-24.902,0.000,0
1749790811.190,-19.531,-23.438,-33.203,-28.320,0.000,0
1749790811.194,-20.508,-25.879,-36.621,-26.855,0.000,0
1749790811.198,-15.137,-28.809,-36.133,-24.414,0.000,0
1749790811.202,-15.625,-29.785,-32.715,-25.879,0.000,0
1749790811.206,-16.602,-26.855,-29.785,-18.555,0.000,0
1749790811.210,-13.672,-25.879,-28.320,-10.254,0.000,0
1749790811.213,-7.324,-23.438,-28.320,-13.184,0.000,0
1749790811.217,-5.859,-24.414,-25.879,-11.230,0.000,0
1749790811.222,-16.602,-23.438,-25.879,-3.906,0.000,0
1749790811.225,-14.648,-20.020,-25.391,-8.301,0.000,0
1749790811.229,-16.113,-20.020,-28.320,-15.625,0.000,0
1749790811.233,-24.902,-19.043,-32.227,-19.531,0.000,0
1749790811.237,-29.785,-24.414,-32.715,-25.879,0.000,0
1749790811.241,-25.879,-27.832,-27.832,-26.367,0.000,0
1749790811.245,-20.020,-24.414,-23.926,-26.855,0.000,0
1749790811.249,-15.137,-24.902,-23.926,-25.879,0.000,0
1749790811.253,-15.625,-29.297,-21.484,-23.438,0.000,0
1749790811.257,-24.414,-34.180,-23.438,-26.855,0.000,0
1749790811.260,-24.902,-29.297,-26.855,-28.809,0.000,0
1749790811.264,-27.344,-24.902,-27.344,-24.902,0.000,0
1749790811.268,-26.855,-29.297,-31.250,-24.414,0.000,0
1749790811.272,-25.391,-32.227,-28.809,-26.367,0.000,0
1749790811.276,-21.973,-29.297,-27.832,-24.902,0.000,0
1749790811.280,-22.461,-29.297,-30.273,-23.438,0.000,0
1749790811.284,-24.902,-30.762,-27.832,-25.391,0.000,0
1749790811.288,-14.648,-26.367,-24.902,-19.531,0.000,0
1749790811.292,-14.160,-24.902,-26.367,-20.020,0.000,0
1749790811.296,-21.484,-21.484,-27.832,-25.391,0.000,0
1749790811.300,-25.391,-18.066,-23.926,-16.602,0.000,0
1749790811.303,-15.625,-22.949,-23.926,-19.531,0.000,0
1749790811.307,-2.930,-24.414,-26.367,-21.484,0.000,0
1749790811.311,-26.855,-24.414,-26.855,-19.043,0.000,0
1749790811.315,-27.344,-27.344,-26.367,-23.438,0.000,0
1749790811.319,-19.043,-29.297,-22.949,-27.344,0.000,0
1749790811.323,-26.855,-29.297,-23.926,-25.879,0.000,0
1749790811.327,-23.926,-24.902,-28.320,-20.996,0.000,0
1749790811.331,-30.762,-25.391,-28.809,-23.926,0.000,0
1749790811.335,-32.715,-32.227,-30.273,-26.367,0.000,0
1749790811.339,-27.832,-28.320,-29.297,-22.461,0.000,0
1749790811.343,-31.738,-31.250,-28.320,-23.926,0.000,0
1749790811.346,-32.715,-38.086,-30.762,-27.344,0.000,0
1749790811.350,-24.902,-33.691,-31.250,-22.949,0.000,0
1749790811.354,-28.809,-27.344,-33.691,-25.879,0.000,0
1749790811.358,-34.668,-20.996,-36.133,-33.203,0.000,0
1749790811.362,-26.855,-20.996,-33.691,-30.273,0.000,0
1749790811.366,-33.203,-24.902,-35.645,-29.297,0.000,0
1749790811.370,-39.551,-28.809,-36.133,-28.320,0.000,0
1749790811.374,-35.156,-32.715,-38.574,-30.273,0.000,0
1749790811.378,-31.250,-32.227,-41.992,-30.762,0.000,0
1749790811.382,-25.391,-29.297,-40.039,-32.227,0.000,0
1749790811.385,-26.855,-27.832,-37.109,-33.203,0.000,0
1749790811.389,-30.762,-30.762,-38.086,-34.668,0.000,0
1749790811.393,-35.645,-33.691,-37.598,-39.551,0.000,0
1749790811.397,-41.504,-33.691,-34.180,-38.086,0.000,0
1749790811.401,-44.922,-33.203,-33.203,-35.645,0.000,0
1749790811.405,-41.504,-35.645,-33.691,-40.039,0.000,0
1749790811.409,-34.180,-36.621,-32.715,-39.062,0.000,0
1749790811.413,-35.645,-28.809,-34.180,-39.062,0.000,0
1749790811.417,-27.344,-28.809,-33.203,-33.203,0.000,0
1749790811.421,-19.043,-33.203,-29.297,-29.785,0.000,0
1749790811.425,-27.344,-29.785,-32.715,-35.156,0.000,0
1749790811.428,-31.250,-27.832,-35.156,-36.621,0.000,0
1749790811.432,-32.715,-34.668,-29.297,-35.645,0.000,0
1749790811.436,-23.926,-33.203,-25.879,-30.273,0.000,0
1749790811.440,-20.020,-28.809,-31.738,-32.227,0.000,0
1749790811.444,-29.297,-31.738,-33.691,-38.086,0.000,0
1749790811.448,-25.879,-32.715,-28.320,-38.574,0.000,0
1749790811.452,-20.020,-31.250,-26.855,-38.574,0.000,0
1749790811.456,-20.020,-31.738,-24.902,-34.668,0.000,0
1749790811.460,-20.020,-30.762,-22.949,-27.832,0.000,0
1749790811.464,-24.414,-29.297,-26.855,-32.715,0.000,0
1749790811.468,-28.809,-31.738,-33.691,-33.691,0.000,0
1749790811.471,-29.785,-34.668,-35.156,-26.367,0.000,0
1749790811.475,-18.066,-35.645,-25.391,-16.602,0.000,0
1749790811.479,-16.602,-30.762,-20.996,-5.371,0.000,0
1749790811.483,-37.598,-27.832,-30.273,-20.996,0.000,0
1749790811.487,-36.621,-21.484,-35.645,-34.180,0.000,0
1749790811.491,-23.438,-18.066,-27.344,-29.785,0.000,0
1749790811.495,-20.020,-19.531,-24.902,-27.832,0.000,0
1749790811.499,-19.043,-14.160,-31.738,-30.273,0.000,0
1749790811.503,-19.531,-12.695,-27.832,-30.273,0.000,0
1749790811.507,-16.113,-9.277,-29.297,-31.250,0.000,0
1749790811.510,-16.602,-3.906,-32.715,-34.668,0.000,0
1749790811.514,-11.719,-8.789,-33.691,-34.180,0.000,0
1749790811.518,-9.766,-11.719,-36.133,-30.273,0.000,0
1749790811.522,-11.230,-9.766,-36.133,-30.273,0.000,0
1749790811.526,-5.371,-7.812,-38.086,-25.879,0.000,0
1749790811.530,-3.906,-6.836,-34.180,-20.996,0.000,0
1749790811.534,-4.883,-7.812,-35.156,-21.973,0.000,0
1749790811.538,-3.906,-11.230,-32.227,-22.949,0.000,0
1749790811.542,-2.441,-11.719,-30.762,-22.949,0.000,0
1749790811.545,-5.859,-5.371,-36.133,-24.414,0.000,0
1749790811.550,-13.672,-7.812,-36.621,-27.832,0.000,0
1749790811.554,-19.531,-13.184,-33.691,-27.832,0.000,0
1749790811.557,-16.113,-10.254,-30.762,-16.602,0.000,0
1749790811.561,-20.508,-10.742,-32.227,-19.043,0.000,0
1749790811.565,-24.902,-14.648,-34.180,-29.297,0.000,0
1749790811.569,-20.020,-12.207,-29.785,-18.555,0.000,0
1749790811.573,-24.414,-9.766,-29.785,-21.484,0.000,0
1749790811.577,-28.809,-11.719,-33.691,-33.691,0.000,0
1749790811.581,-18.555,-11.230,-33.691,-32.715,0.000,0
1749790811.585,-18.066,-4.395,-32.715,-28.320,0.000,0
1749790811.588,-20.996,-3.906,-34.180,-30.273,0.000,0
1749790811.592,-21.484,-13.184,-35.645,-39.062,0.000,0
1749790811.597,-27.832,-17.578,-41.504,-35.156,0.000,0
1749790811.600,-26.367,-18.066,-40.527,-27.344,0.000,0
1749790811.604,-23.438,-12.695,-33.691,-26.367,0.000,0
1749790811.608,-23.438,-10.742,-36.133,-29.297,0.000,0
1749790811.612,-20.508,-13.184,-34.180,-29.785,0.000,0
1749790811.616,-34.668,-16.113,-32.227,-36.133,0.000,0
1749790811.620,-47.852,-20.508,-34.668,-35.156,0.000,0
1749790811.624,-43.457,-23.438,-32.715,-35.645,0.000,0
1749790811.628,-39.062,-25.879,-35.156,-36.621,0.000,0
1749790811.631,-34.180,-25.879,-36.621,-27.344,0.000,0
1749790811.635,-35.645,-28.320,-37.109,-30.762,0.000,0
1749790811.639,-37.598,-26.855,-35.156,-34.668,0.000,0
1749790811.643,-35.645,-25.391,-34.180,-35.156,0.000,0
1749790811.647,-30.273,-27.344,-35.645,-37.598,0.000,0
1749790811.651,-31.250,-28.809,-37.109,-36.133,0.000,0
1749790811.655,-39.062,-28.809,-38.574,-31.738,0.000,0
1749790811.659,-42.969,-27.832,-39.062,-35.156,0.000,0
1749790811.663,-36.133,-28.809,-34.668,-37.598,0.000,0
1749790811.667,-34.668,-29.297,-34.668,-41.504,0.000,0
1749790811.671,-30.273,-27.344,-34.180,-43.945,0.000,0
1749790811.675,-22.949,-24.414,-33.691,-38.086,0.000,0
1749790811.678,-30.762,-25.879,-39.551,-41.016,0.000,0
1749790811.682,-37.109,-25.391,-39.551,-34.180,0.000,0
1749790811.686,-31.250,-24.414,-37.598,-36.133,0.000,0
1749790811.690,-27.832,-29.785,-37.598,-47.852,0.000,0
1749790811.694,-28.320,-26.367,-32.715,-39.551,0.000,0
1749790811.698,-25.391,-29.297,-35.156,-38.574,0.000,0
1749790811.702,-29.785,-35.645,-40.039,-45.410,0.000,0
1749790811.706,-41.504,-31.250,-39.062,-46.875,0.000,0
1749790811.710,-41.992,-31.250,-40.527,-52.734,0.000,0
1749790811.714,-41.016,-32.227,-44.434,-48.340,0.000,0
1749790811.718,-34.180,-32.227,-42.969,-41.504,0.000,0
1749790811.721,-29.297,-28.809,-41.016,-44.922,0.000,0
1749790811.725,-28.320,-21.484,-42.969,-38.574,0.000,0
1749790811.729,-32.227,-25.391,-37.109,-33.203,0.000,0
1749790811.733,-33.691,-27.832,-34.180,-37.598,0.000,0
1749790811.737,-31.250,-26.855,-39.551,-39.062,0.000,0
1749790811.741,-18.066,-28.320,-38.086,-33.203,0.000,0
1749790811.745,-18.066,-29.297,-34.668,-37.598,0.000,0
1749790811.749,-35.156,-30.273,-30.762,-34.668,0.000,0
1749790811.753,-41.016,-31.738,-31.250,-26.367,0.000,0
1749790811.757,-39.551,-28.320,-29.297,-27.832,0.000,0
1749790811.760,-38.086,-28.809,-29.297,-23.926,0.000,0
1749790811.764,-31.738,-29.297,-24.414,-19.043,0.000,0
1749790811.768,-19.043,-26.855,-20.508,-15.137,0.000,0
1749790811.772,-19.043,-20.996,-25.391,-18.555,0.000,0
1749790811.776,-26.855,-12.695,-26.855,-30.273,0.000,0
1749790811.780,-26.855,-14.648,-34.180,-35.156,0.000,0
1749790811.784,-25.879,-16.602,-40.039,-38.086,0.000,0
1749790811.788,-20.020,-11.230,-38.574,-37.598,0.000,0
1749790811.792,-19.531,-4.395,-33.691,-31.738,0.000,0
1749790811.796,-30.273,-1.465,-33.203,-40.527,0.000,0
1749790811.800,-30.762,-5.859,-41.992,-45.410,0.000,0
1749790811.803,-24.902,-6.836,-42.480,-44.434,0.000,0
1749790811.807,-23.438,-4.883,-37.598,-38.086,0.000,0
1749790811.811,-22.461,-6.348,-36.621,-30.762,0.000,0
1749790811.815,-20.020,-5.859,-36.621,-33.203,0.000,0
1749790811.819,-19.531,-7.812,-36.133,-31.250,0.000,0
1749790811.823,-21.973,-7.324,-33.203,-34.180,0.000,0
1749790811.827,-19.531,-8.301,-33.691,-37.109,0.000,0
1749790811.831,-19.043,-7.812,-37.109,-32.227,0.000,0
1749790811.835,-18.555,-10.254,-39.551,-33.203,0.000,0
1749790811.839,-20.996,-14.648,-37.109,-34.668,0.000,0
1749790811.842,-13.672,-12.695,-34.180,-34.180,0.000,0
1749790811.846,-14.648,-10.254,-30.273,-26.855,0.000,0
1749790811.850,-30.273,-12.207,-29.785,-20.508,0.000,0
1749790811.854,-23.438,-16.602,-32.227,-21.973,0.000,0
1749790811.858,-13.184,-18.555,-31.738,-25.391,0.000,0
1749790811.862,-21.484,-21.484,-32.715,-28.320,0.000,0
1749790811.866,-26.367,-25.391,-36.621,-27.832,0.000,0
1749790811.870,-27.344,-20.508,-36.621,-25.391,0.000,0
1749790811.874,-20.996,-14.648,-34.668,-29.785,0.000,0
1749790811.878,-22.461,-18.066,-37.109,-37.598,0.000,0
1749790811.882,-25.879,-19.531,-40.039,-31.738,0.000,0
1749790811.885,-21.973,-19.531,-38.086,-34.180,0.000,0
1749790811.889,-21.973,-15.137,-38.574,-47.852,0.000,0
1749790811.893,3.906,-7.324,-44.434,-32.227,0.000,0
1749790811.897,15.625,-18.066,-38.574,-14.160,0.000,0
1749790811.901,-13.672,-30.273,-23.438,-21.484,0.000,0
1749790811.905,-42.969,-34.668,-19.531,-38.086,0.000,0
1749790811.909,-53.711,-41.504,-19.531,-42.480,0.000,0
1749790811.913,-55.176,-46.875,-15.137,-35.645,0.000,0
1749790811.916,-63.965,-49.805,-5.859,-46.875,0.000,0
1749790811.920,-80.078,-56.641,1.465,-62.500,0.000,0
1749790811.925,-94.238,-64.941,1.953,-64.453,0.000,0
1749790811.928,-91.797,-65.430,3.418,-60.547,0.000,0
1749790811.932,-99.609,-69.824,8.789,-65.430,0.000,0
1749790811.936,-114.258,-82.031,10.742,-67.871,0.000,0
1749790811.940,-100.098,-83.008,5.859,-55.176,0.000,0
1749790811.944,-91.309,-76.172,6.348,-52.734,0.000,0
1749790811.948,-98.633,-76.172,3.906,-62.500,0.000,0
1749790811.952,-96.191,-74.219,0.977,-65.430,0.000,0
1749790811.956,-92.285,-69.336,2.441,-59.082,0.000,0
1749790811.960,-89.355,-64.941,2.930,-49.316,0.000,0
1749790811.963,-79.590,-61.035,0.000,-42.480,0.000,0
1749790811.967,-72.754,-62.988,-1.953,-37.109,0.000,0
1749790811.971,-73.242,-63.965,-2.930,-37.109,0.000,0
1749790811.975,-69.336,-62.500,-9.277,-41.992,0.000,0
1749790811.979,-56.152,-63.965,-14.160,-41.016,0.000,0
1749790811.983,-55.176,-62.500,-21.973,-41.016,0.000,0
1749790811.987,-60.547,-60.547,-23.438,-39.062,0.000,0
1749790811.991,-55.176,-53.223,-17.090,-37.109,0.000,0
1749790811.995,-51.758,-48.340,-18.555,-31.250,0.000,0
1749790811.999,-46.875,-49.805,-23.438,-25.391,0.000,0
1749790812.003,-39.551,-50.781,-21.484,-23.926,0.000,0
1749790812.006,-35.645,-49.805,-22.461,-22.949,0.000,0
1749790812.010,-32.227,-42.969,-25.391,-25.391,0.000,0
1749790812.014,-22.461,-42.480,-23.926,-23.438,0.000,0
1749790812.018,-18.066,-42.969,-24.902,-18.555,0.000,0
1749790812.022,-30.762,-39.551,-25.391,-22.461,0.000,0
1749790812.026,-33.203,-42.480,-29.785,-20.020,0.000,0
1749790812.030,-26.367,-40.039,-31.250,-17.090,0.000,0
1749790812.034,-22.461,-39.062,-26.855,-22.461,0.000,0
1749790812.038,-17.578,-38.086,-24.414,-20.020,0.000,0
1749790812.042,-11.230,-35.645,-22.461,-17.578,0.000,0
1749790812.046,-10.254,-35.156,-20.020,-20.020,0.000,0
1749790812.049,-15.625,-36.133,-21.484,-18.066,0.000,0
1749790812.053,-7.324,-34.668,-22.461,-16.602,0.000,0
1749790812.057,-5.371,-23.926,-19.043,-15.625,0.000,0
1749790812.061,-16.602,-20.020,-16.113,-8.789,0.000,0
1749790812.065,-20.996,-29.297,-23.926,-10.742,0.000,0
1749790812.069,-24.414,-34.668,-26.367,-14.648,0.000,0
1749790812.073,-26.367,-32.227,-20.508,-10.742,0.000,0
1749790812.077,-23.926,-33.203,-21.973,-13.672,0.000,0
1749790812.081,-23.438,-33.203,-24.414,-18.066,0.000,0
1749790812.085,-18.555,-36.133,-22.461,-21.484,0.000,0
1749790812.089,-15.625,-39.062,-27.344,-23.926,0.000,0
1749790812.092,-25.879,-36.621,-31.250,-24.414,0.000,0
1749790812.096,-28.320,-36.621,-28.809,-23.926,0.000,0
1749790812.100,-22.949,-35.156,-24.902,-18.066,0.000,0
1749790812.104,-31.738,-32.715,-27.344,-17.578,0.000,0
1749790812.108,-32.715,-34.180,-28.320,-22.949,0.000,0
1749790812.112,-26.367,-32.715,-25.391,-26.855,0.000,0
1749790812.116,-27.832,-31.738,-26.855,-24.414,0.000,0
1749790812.120,-26.855,-34.668,-30.273,-21.973,0.000,0
1749790812.124,-18.066,-33.203,-28.809,-26.367,0.000,0
1749790812.128,-19.531,-29.785,-26.367,-21.484,0.000,0
1749790812.132,-24.414,-35.156,-28.320,-20.020,0.000,0
1749790812.135,-19.531,-34.668,-24.902,-20.020,0.000,0
1749790812.139,-24.414,-34.180,-27.832,-22.461,0.000,0
1749790812.143,-27.344,-36.133,-27.832,-24.414,0.000,0
1749790812.147,-30.273,-35.645,-23.438,-24.414,0.000,0
1749790812.151,-35.645,-40.039,-24.902,-25.879,0.000,0
1749790812.155,-34.668,-44.434,-25.391,-19.043,0.000,0
1749790812.159,-33.203,-39.062,-25.391,-18.066,0.000,0
1749790812.163,-31.250,-29.297,-22.461,-21.973,0.000,0
1749790812.167,-30.762,-26.855,-20.020,-26.855,0.000,0
1749790812.171,-28.320,-30.273,-18.555,-25.879,0.000,0
1749790812.174,-26.855,-29.297,-21.973,-23.926,0.000,0
1749790812.178,-36.133,-28.809,-21.973,-23.926,0.000,0
1749790812.182,-32.227,-31.250,-20.996,-20.996,0.000,0
1749790812.186,-24.902,-34.668,-18.066,-18.555,0.000,0
1749790812.190,-21.973,-33.691,-19.531,-22.949,0.000,0
1749790812.194,-12.207,-31.250,-23.926,-31.250,0.000,0
1749790812.198,-28.320,-26.367,-22.461,-28.809,0.000,0
1749790812.202,-39.551,-23.438,-22.949,-23.926,0.000,0
1749790812.206,-28.320,-31.738,-26.855,-23.926,0.000,0
1749790812.210,-25.879,-27.344,-26.367,-23.438,0.000,0
1749790812.214,-20.996,-20.020,-21.973,-14.160,0.000,0
1749790812.217,-19.531,-23.926,-21.484,-16.602,0.000,0
1749790812.221,-21.484,-24.414,-22.461,-27.344,0.000,0
1749790812.225,-20.508,-23.926,-28.809,-24.902,0.000,0
1749790812.229,-17.090,-23.438,-28.320,-22.949,0.000,0
1749790812.233,-16.113,-28.320,-26.367,-21.973,0.000,0
1749790812.237,-20.996,-33.691,-28.809,-22.461,0.000,0
1749790812.241,-26.367,-32.715,-31.738,-27.832,0.000,0
1749790812.245,-28.320,-29.785,-34.180,-33.691,0.000,0
1749790812.248,-26.367,-30.273,-37.109,-38.086,0.000,0
1749790812.253,-21.973,-30.762,-37.598,-39.551,0.000,0
1749790812.256,-27.832,-26.855,-33.691,-42.480,0.000,0
1749790812.260,-30.762,-26.367,-34.180,-34.668,0.000,0
1749790812.264,-22.949,-21.973,-39.062,-27.344,0.000,0
1749790812.268,-19.531,-24.414,-39.062,-30.273,0.000,0
1749790812.272,-20.996,-25.391,-34.180,-29.297,0.000,0
1749790812.276,-20.020,-24.414,-30.273,-29.297,0.000,0
1749790812.280,-2.441,-32.227,-25.879,-15.625,0.000,0
1749790812.284,5.371,-30.762,-29.785,-9.766,0.000,0
1749790812.288,-11.230,-24.902,-44.434,-35.645,0.000,0
1749790812.291,-15.137,-10.742,-46.387,-45.410,0.000,0
1749790812.295,-10.742,-1.953,-44.434,-39.062,0.000,0
1749790812.300,1.465,0.977,-43.457,-29.785,0.000,0
1749790812.303,4.395,5.371,-43.457,-23.926,0.000,0
1749790812.307,-2.930,7.324,-50.293,-29.785,0.000,0
1749790812.311,3.906,14.648,-59.082,-36.621,0.000,0
1749790812.315,19.531,17.578,-58.594,-32.227,0.000,0
1749790812.319,23.438,21.484,-57.617,-25.879,0.000,0
1749790812.323,15.137,30.762,-59.570,-32.715,0.000,0
1749790812.327,14.648,62.500,-61.035,-30.273,0.000,0
1749790812.331,16.602,84.961,-65.918,-25.879,0.000,0
1749790812.334,20.508,77.148,-60.547,-23.438,0.000,0
1749790812.338,22.949,78.125,-56.152,-17.578,0.000,0
1749790812.342,17.090,76.172,-52.734,-19.043,0.000,0
1749790812.346,17.578,68.359,-49.805,-21.973,0.000,0
1749790812.350,14.648,62.988,-49.316,-21.973,0.000,0
1749790812.354,13.184,56.641,-49.805,-25.879,0.000,0
1749790812.358,9.277,49.316,-46.387,-24.414,0.000,0
1749790812.362,-3.906,42.969,-44.434,-21.973,0.000,0
1749790812.366,0.488,44.922,-39.551,-19.043,0.000,0
1749790812.370,5.371,45.898,-36.621,-17.090,0.000,0
1749790812.374,-4.883,38.574,-40.527,-19.043,0.000,0
1749790812.378,-9.766,33.691,-41.504,-17.578,0.000,0
1749790812.381,-6.836,31.250,-38.574,-19.531,0.000,0
1749790812.385,-9.766,24.902,-41.504,-27.344,0.000,0
1749790812.389,-12.207,20.020,-46.875,-29.785,0.000,0
1749790812.393,-7.812,22.949,-43.457,-25.879,0.000,0
1749790812.397,-2.441,23.926,-37.109,-22.949,0.000,0
1749790812.401,-11.230,15.625,-37.109,-18.555,0.000,0
1749790812.405,-17.090,8.789,-35.645,-13.672,0.000,0
1749790812.409,-10.254,12.207,-31.250,-12.695,0.000,0
1749790812.413,-6.836,16.113,-26.367,-10.254,0.000,0
1749790812.417,-17.090,6.836,-21.484,-8.789,0.000,0
1749790812.421,-24.902,-1.465,-26.855,-10.742,0.000,0
1749790812.424,-15.625,0.000,-29.297,-14.160,0.000,0
1749790812.428,-9.766,0.488,-25.879,-17.090,0.000,0
1749790812.432,-23.438,-6.836,-30.273,-18.555,0.000,0
1749790812.436,-25.391,-7.812,-31.738,-17.578,0.000,0
1749790812.440,-21.484,-7.324,-34.180,-20.020,0.000,0
1749790812.444,-27.344,-8.301,-35.645,-24.414,0.000,0
1749790812.448,-21.484,-8.301,-33.203,-23.926,0.000,0
1749790812.452,-8.789,-9.277,-33.691,-20.996,0.000,0
1749790812.456,-13.672,-8.789,-34.180,-22.949,0.000,0
1749790812.460,-22.461,-11.719,-35.156,-25.391,0.000,0
1749790812.464,-15.625,-6.348,-35.156,-23.438,0.000,0
1749790812.467,-3.906,-3.418,-34.180,-21.484,0.000,0
1749790812.471,-4.395,-8.301,-33.691,-23.926,0.000,0
1749790812.475,-18.066,-12.207,-38.086,-27.344,0.000,0
1749790812.479,-18.066,-9.277,-38.086,-26.367,0.000,0
1749790812.483,-16.113,-9.277,-37.598,-27.832,0.000,0
1749790812.487,-13.184,-14.648,-38.086,-26.855,0.000,0
1749790812.491,-17.090,-13.184,-36.133,-25.879,0.000,0
1749790812.495,-19.043,-11.719,-37.109,-25.879,0.000,0
1749790812.499,-22.949,-12.695,-36.621,-26.855,0.000,0
1749790812.503,-25.879,-23.438,-34.180,-22.949,0.000,0
1749790812.506,-15.625,-27.832,-30.273,-15.625,0.000,0
1749790812.510,-15.137,-16.113,-35.156,-24.414,0.000,0
1749790812.514,-25.879,-6.836,-40.527,-38.086,0.000,0
1749790812.518,-22.461,-4.883,-38.086,-37.109,0.000,0
1749790812.522,-17.578,-4.883,-37.598,-39.062,0.000,0
1749790812.526,-20.996,0.977,-39.551,-42.969,0.000,0
1749790812.530,-23.926,2.441,-41.016,-38.574,0.000,0
1749790812.534,-25.879,0.977,-42.480,-40.039,0.000,0
1749790812.538,-20.020,4.883,-40.527,-38.574,0.000,0
1749790812.542,-18.066,1.953,-37.598,-29.785,0.000,0
1749790812.546,-19.043,-4.883,-32.715,-26.855,0.000,0
1749790812.549,-19.531,-5.371,-27.832,-33.203,0.000,0
1749790812.553,-12.695,-3.418,-29.785,-35.156,0.000,0
1749790812.557,-12.695,-4.395,-34.180,-35.645,0.000,0
1749790812.561,-24.414,-6.836,-35.645,-41.016,0.000,0
1749790812.565,-22.949,-9.277,-38.574,-40.039,0.000,0
1749790812.569,-24.902,-7.324,-39.062,-37.598,0.000,0
1749790812.573,-24.902,-4.883,-35.156,-35.645,0.000,0
1749790812.577,-21.973,-12.207,-37.109,-31.738,0.000,0
1749790812.581,-13.184,-15.137,-37.109,-30.273,0.000,0
1749790812.585,-10.254,-15.137,-35.156,-33.203,0.000,0
1749790812.589,-13.672,-16.113,-33.203,-28.320,0.000,0
1749790812.592,-12.207,-14.160,-26.855,-23.926,0.000,0
1749790812.596,-13.184,-13.184,-31.250,-29.785,0.000,0
1749790812.600,-13.672,-12.207,-38.574,-31.738,0.000,0
1749790812.604,-20.020,-14.160,-37.598,-33.691,0.000,0
1749790812.608,-18.555,-15.137,-32.227,-34.180,0.000,0
1749790812.612,-15.137,-15.625,-32.227,-36.133,0.000,0
1749790812.616,-18.066,-18.066,-34.668,-34.668,0.000,0
1749790812.620,-11.719,-17.578,-31.738,-21.484,0.000,0
1749790812.623,-14.160,-14.648,-30.273,-19.043,0.000,0
1749790812.628,-21.484,-11.719,-29.785,-17.090,0.000,0
1749790812.632,-20.508,-12.695,-32.715,-14.648,0.000,0
1749790812.635,-18.555,-13.672,-29.785,-19.043,0.000,0
1749790812.639,-11.230,-13.672,-29.297,-17.578,0.000,0
1749790812.643,-12.695,-14.160,-30.273,-18.066,0.000,0
1749790812.647,-18.066,-16.602,-31.250,-20.020,0.000,0
1749790812.651,-20.508,-18.066,-28.320,-22.461,0.000,0
1749790812.655,-19.531,-16.113,-27.344,-21.484,0.000,0
1749790812.659,-20.020,-16.602,-31.738,-20.508,0.000,0
1749790812.663,-21.973,-17.578,-32.715,-23.438,0.000,0
1749790812.667,-33.203,-22.461,-38.574,-30.273,0.000,0
1749790812.670,-37.598,-23.926,-40.527,-33.691,0.000,0
1749790812.675,-33.203,-21.973,-35.645,-33.691,0.000,0
1749790812.679,-27.832,-19.043,-32.715,-35.156,0.000,0
1749790812.682,-28.809,-24.414,-33.203,-38.574,0.000,0
1749790812.686,-33.203,-25.391,-36.133,-40.039,0.000,0
1749790812.690,-34.180,-18.066,-33.203,-40.039,0.000,0
1749790812.694,-30.762,-13.672,-30.273,-36.621,0.000,0
1749790812.698,-28.320,-22.461,-35.645,-33.203,0.000,0
1749790812.702,-24.902,-27.832,-34.180,-30.762,0.000,0
1749790812.706,-24.414,-20.020,-29.785,-29.297,0.000,0
1749790812.710,-25.879,-18.066,-30.762,-27.344,0.000,0
1749790812.713,-21.973,-17.578,-35.156,-27.344,0.000,0
1749790812.717,-26.367,-18.555,-33.691,-29.297,0.000,0
1749790812.722,-33.691,-21.484,-30.762,-29.297,0.000,0
1749790812.725,-28.320,-19.043,-33.203,-31.738,0.000,0
1749790812.729,-22.949,-21.484,-32.715,-28.809,0.000,0
1749790812.733,-28.320,-22.949,-34.180,-31.738,0.000,0
1749790812.737,-32.715,-20.996,-36.621,-40.527,0.000,0
1749790812.741,-28.809,-22.461,-34.668,-33.203,0.000,0
1749790812.745,-27.832,-20.508,-28.320,-30.762,0.000,0
1749790812.749,-37.598,-20.996,-27.832,-32.715,0.000,0
1749790812.753,-33.203,-25.391,-29.785,-26.855,0.000,0
1749790812.757,-25.391,-29.785,-28.809,-20.508,0.000,0
1749790812.760,-25.879,-33.691,-30.762,-20.996,0.000,0
1749790812.764,-29.785,-34.668,-27.344,-23.438,0.000,0
1749790812.768,-26.367,-28.809,-22.949,-21.484,0.000,0
1749790812.772,-18.066,-20.020,-22.461,-21.484,0.000,0
1749790812.776,-22.949,-20.020,-23.926,-23.926,0.000,0
1749790812.780,-31.738,-20.996,-25.879,-21.484,0.000,0
1749790812.784,-26.367,-17.090,-23.438,-23.926,0.000,0
1749790812.788,-23.926,-14.648,-17.578,-29.785,0.000,0
1749790812.792,-25.391,-14.160,-19.531,-21.484,0.000,0
1749790812.796,-27.832,-17.090,-23.438,-28.809,0.000,0
1749790812.800,-38.086,-13.672,-21.973,-40.039,0.000,0
1749790812.803,-42.480,-6.836,-23.926,-39.062,0.000,0
1749790812.807,-44.922,-1.953,-21.973,-48.340,0.000,0
1749790812.811,-56.641,0.488,-11.230,-58.105,0.000,0
1749790812.815,-62.988,6.836,-10.254,-59.082,0.000,0
1749790812.819,-80.566,25.879,-14.648,-77.148,0.000,0
1749790812.823,-123.047,30.762,-10.742,-115.723,0.000,0
1749790812.827,-132.812,35.645,-3.418,-132.324,0.000,0
1749790812.831,-150.391,46.875,-0.488,-157.715,0.000,0
1749790812.835,-190.430,53.223,2.930,-190.918,0.000,0
1749790812.839,-210.449,68.848,11.719,-201.660,0.000,0
1749790812.843,-221.680,83.008,16.113,-214.844,0.000,0
1749790812.846,-230.957,85.449,9.766,-234.375,0.000,0
1749790812.850,-234.863,83.496,5.859,-240.723,0.000,0
1749790812.854,-229.492,86.914,5.859,-235.352,0.000,0
1749790812.858,-217.773,88.379,13.672,-224.609,0.000,0
1749790812.862,-215.820,83.496,16.113,-215.820,0.000,0
1749790812.866,-212.891,84.473,14.160,-214.355,0.000,0
1749790812.870,-192.871,75.684,10.742,-207.031,0.000,0
1749790812.874,-176.270,61.035,0.488,-196.777,0.000,0
1749790812.878,-160.156,61.523,-8.301,-183.105,0.000,0
1749790812.882,-149.902,65.918,-5.371,-165.527,0.000,0
1749790812.886,-148.438,59.082,-5.859,-148.926,0.000,0
1749790812.889,-126.953,46.387,-5.371,-129.395,0.000,0
1749790812.893,-111.328,39.062,-9.766,-119.629,0.000,0
1749790812.897,-105.957,34.180,-22.949,-112.793,0.000,0
1749790812.901,-92.773,29.297,-24.414,-91.797,0.000,0
1749790812.905,-77.637,15.625,-29.785,-81.055,0.000,0
1749790812.909,-55.664,-1.953,-37.109,-75.195,0.000,0
1749790812.913,-39.062,-6.348,-40.527,-59.570,0.000,0
1749790812.917,-38.086,-9.277,-40.039,-45.410,0.000,0
1749790812.921,-24.902,-22.949,-38.086,-35.156,0.000,0
1749790812.925,-23.438,-25.391,-43.945,-28.809,0.000,0
1749790812.928,-26.367,-27.832,-48.340,-23.926,0.000,0
1749790812.932,-5.859,-34.180,-46.875,-14.160,0.000,0
1749790812.936,3.418,-37.598,-46.875,0.000,0.000,0
1749790812.940,-0.977,-43.457,-52.246,6.348,0.000,0
1749790812.944,9.277,-45.410,-55.664,12.207,0.000,0
1749790812.948,12.695,-48.340,-58.594,17.578,0.000,0
1749790812.952,19.043,-58.105,-57.617,17.578,0.000,0
1749790812.956,33.691,-64.941,-58.594,18.066,0.000,0
1749790812.960,35.156,-64.453,-55.664,22.949,0.000,0
1749790812.964,41.016,-63.477,-47.852,32.715,0.000,0
1749790812.968,54.688,-64.453,-44.922,43.945,0.000,0
1749790812.971,58.105,-64.453,-46.875,51.270,0.000,0
1749790812.975,52.734,-60.547,-46.387,50.781,0.000,0
1749790812.979,56.152,-64.453,-43.945,46.875,0.000,0
1749790812.983,57.617,-69.336,-47.363,46.875,0.000,0
1749790812.987,62.012,-61.035,-48.828,47.363,0.000,0
1749790812.991,61.523,-59.570,-47.363,49.316,0.000,0
1749790812.995,52.734,-61.523,-48.340,51.270,0.000,0
1749790812.999,57.617,-66.406,-48.828,47.363,0.000,0
1749790813.003,71.777,-68.359,-46.875,48.828,0.000,0
1749790813.007,59.570,-62.988,-36.621,56.641,0.000,0
1749790813.010,45.410,-64.941,-36.133,57.129,0.000,0
1749790813.014,55.664,-68.359,-43.945,48.340,0.000,0
1749790813.018,55.176,-70.312,-43.457,48.340,0.000,0
1749790813.022,54.199,-67.383,-39.551,49.316,0.000,0
1749790813.026,53.223,-62.012,-41.504,45.410,0.000,0
1749790813.030,53.223,-62.988,-44.434,47.852,0.000,0
1749790813.034,44.434,-65.918,-43.945,45.898,0.000,0
1749790813.038,40.527,-65.430,-41.992,39.062,0.000,0
1749790813.042,37.598,-63.477,-37.598,36.621,0.000,0
1749790813.045,32.715,-60.059,-40.527,25.391,0.000,0
1749790813.050,36.133,-57.617,-43.945,13.672,0.000,0
1749790813.053,18.066,-57.617,-43.457,21.484,0.000,0
1749790813.057,9.277,-54.688,-41.992,22.461,0.000,0
1749790813.061,16.602,-54.688,-38.574,17.090,0.000,0
1749790813.065,19.043,-57.129,-34.180,18.066,0.000,0
1749790813.069,13.672,-56.641,-29.297,17.090,0.000,0
1749790813.073,10.742,-53.711,-28.320,18.066,0.000,0
1749790813.077,13.184,-47.852,-30.762,13.672,0.000,0
1749790813.081,12.695,-46.875,-33.691,11.719,0.000,0
