timestamps,TP9,AF7,AF8,TP10,Right AUX,Marker0
1749426393.683,-87.891,-52.246,-55.664,-1.953,0.000,0
1749426393.687,-94.238,-57.129,-54.688,35.645,0.000,0
1749426393.691,-87.402,-58.105,-55.664,40.039,0.000,0
1749426393.694,-84.473,-55.664,-54.199,43.945,0.000,0
1749426393.698,-104.492,-60.059,-59.082,50.293,0.000,0
1749426393.702,-116.699,-66.895,-62.988,34.180,0.000,0
1749426393.706,-109.863,-62.012,-60.059,36.621,0.000,0
1749426393.710,-104.980,-60.059,-61.035,37.109,0.000,0
1749426393.714,-112.305,-63.965,-60.547,27.832,0.000,0
1749426393.717,-119.141,-67.871,-64.453,15.137,0.000,0
1749426393.721,-119.629,-65.918,-70.801,-1.953,0.000,0
1749426393.725,-118.164,-60.059,-65.918,7.812,0.000,0
1749426393.730,-116.211,-62.988,-63.477,-5.859,0.000,0
1749426393.734,-115.234,-69.336,-64.941,-17.578,0.000,0
1749426393.738,-114.746,-75.195,-63.477,-21.484,0.000,0
1749426393.741,-112.305,-75.195,-60.059,-33.691,0.000,0
1749426393.745,-113.281,-71.289,-59.082,-36.133,0.000,0
1749426393.749,-115.723,-70.801,-60.059,-52.734,0.000,0
1749426393.753,-111.328,-74.707,-59.082,-69.336,0.000,0
1749426393.757,-105.469,-75.195,-62.500,-67.383,0.000,0
1749426393.761,-99.121,-65.430,-62.500,-71.777,0.000,0
1749426393.764,-98.145,-62.500,-57.129,-76.660,0.000,0
1749426393.768,-92.773,-65.918,-57.129,-72.266,0.000,0
1749426393.772,-72.266,-62.012,-56.152,-63.477,0.000,0
1749426393.777,-60.059,-51.758,-53.223,-51.758,0.000,0
1749426393.781,-58.105,-48.340,-55.176,-45.410,0.000,0
1749426393.785,-45.898,-44.922,-58.105,-38.086,0.000,0
1749426393.788,-26.855,-39.551,-59.570,-34.668,0.000,0
1749426393.792,-10.742,-32.715,-52.246,-28.320,0.000,0
1749426393.796,-8.301,-26.367,-43.457,-12.207,0.000,0
1749426393.800,-13.184,-27.832,-41.016,-7.324,0.000,0
1749426393.804,-12.695,-29.297,-41.992,-12.207,0.000,0
1749426393.808,-12.207,-28.809,-41.992,-11.719,0.000,0
1749426393.811,-7.812,-26.855,-33.203,-9.277,0.000,0
1749426393.815,-12.695,-20.020,-31.738,-8.789,0.000,0
1749426393.819,-32.227,-18.066,-36.133,-18.555,0.000,0
1749426393.824,-41.504,-18.555,-35.645,-24.414,0.000,0
1749426393.828,-48.828,-21.484,-36.133,-14.648,0.000,0
1749426393.831,-43.457,-20.996,-31.738,-9.277,0.000,0
1749426393.835,-38.086,-14.648,-30.762,-15.137,0.000,0
1749426393.839,-41.504,-13.672,-34.668,-20.996,0.000,0
1749426393.843,-41.016,-12.695,-34.668,-21.973,0.000,0
1749426393.847,-45.410,-10.254,-32.715,-22.949,0.000,0
1749426393.851,-41.016,-11.230,-32.227,-23.438,0.000,0
1749426393.855,-39.062,-9.277,-33.203,-30.273,0.000,0
1749426393.858,-36.621,-4.395,-34.180,-30.273,0.000,0
1749426393.862,-40.527,-4.883,-31.250,-27.344,0.000,0
1749426393.866,-47.363,-6.348,-27.344,-33.203,0.000,0
1749426393.871,-48.828,-7.812,-30.273,-62.012,0.000,0
1749426393.874,-52.246,-14.160,-39.062,-94.238,0.000,0
1749426393.878,-51.758,-17.090,-41.992,-92.773,0.000,0
1749426393.882,-59.570,-13.672,-38.574,-95.215,0.000,0
1749426393.886,-69.336,-11.230,-39.062,-109.863,0.000,0
1749426393.890,-62.500,-11.719,-41.016,-104.980,0.000,0
1749426393.894,-61.035,-7.812,-35.645,-87.891,0.000,0
1749426393.898,-72.754,-6.836,-34.180,-80.566,0.000,0
1749426393.901,-80.566,-9.766,-42.969,-87.891,0.000,0
1749426393.905,-80.566,-11.230,-52.246,-94.238,0.000,0
1749426393.909,-81.543,-17.090,-47.363,-89.355,0.000,0
1749426393.913,-84.473,-21.484,-42.480,-85.938,0.000,0
1749426393.917,-85.938,-20.508,-51.270,-91.309,0.000,0
1749426393.921,-76.660,-17.090,-52.734,-93.750,0.000,0
1749426393.925,-76.172,-18.066,-47.363,-89.355,0.000,0
1749426393.929,-83.984,-18.066,-42.969,-84.961,0.000,0
1749426393.933,-77.148,-11.230,-41.016,-88.379,0.000,0
1749426393.937,-66.406,-6.348,-42.480,-96.680,0.000,0
1749426393.941,-58.594,-10.254,-38.086,-95.215,0.000,0
1749426393.944,-53.223,-10.742,-34.668,-83.496,0.000,0
1749426393.948,-57.617,-12.207,-38.086,-78.613,0.000,0
1749426393.952,-65.918,-13.184,-41.504,-87.402,0.000,0
1749426393.956,-64.941,-11.719,-42.480,-93.262,0.000,0
1749426393.960,-64.453,-13.184,-41.504,-76.660,0.000,0
1749426393.965,-74.707,-13.184,-41.016,-64.941,0.000,0
1749426393.968,-72.754,-17.578,-45.898,-73.730,0.000,0
1749426393.972,-70.312,-21.484,-51.270,-77.637,0.000,0
1749426393.976,-69.336,-16.602,-47.363,-68.848,0.000,0
1749426393.980,-67.871,-12.695,-39.062,-63.965,0.000,0
1749426393.984,-65.918,-10.742,-36.621,-64.453,0.000,0
1749426393.988,-60.547,-9.766,-40.039,-56.641,0.000,0
1749426393.992,-50.781,-12.207,-40.527,-52.246,0.000,0
1749426393.995,-45.410,-10.254,-32.227,-48.340,0.000,0
1749426393.999,-51.758,-6.836,-26.367,-44.922,0.000,0
1749426394.003,-52.734,-11.719,-29.297,-49.316,0.000,0
1749426394.007,-47.363,-14.160,-29.785,-51.758,0.000,0
1749426394.012,-48.828,-15.137,-25.879,-35.645,0.000,0
1749426394.016,-34.180,-6.348,-12.695,-14.648,0.000,0
1749426394.019,-13.184,16.113,6.836,-5.859,0.000,0
1749426394.023,5.371,22.461,21.973,8.789,0.000,0
1749426394.027,22.461,32.715,32.715,30.762,0.000,0
1749426394.031,18.066,47.852,37.598,25.391,0.000,0
1749426394.035,18.066,46.387,27.344,13.672,0.000,0
1749426394.039,34.180,43.945,16.602,22.949,0.000,0
1749426394.043,46.875,48.828,18.066,35.156,0.000,0
1749426394.046,54.688,51.758,10.742,39.062,0.000,0
1749426394.050,53.711,54.199,-3.418,31.250,0.000,0
1749426394.054,41.992,46.387,-8.789,26.367,0.000,0
1749426394.059,32.715,36.133,-8.301,31.738,0.000,0
1749426394.063,22.461,28.320,-1.465,37.598,0.000,0
1749426394.067,15.625,24.414,3.906,28.809,0.000,0
1749426394.070,21.973,26.855,2.930,16.113,0.000,0
1749426394.074,28.809,30.273,3.418,23.438,0.000,0
1749426394.078,26.855,28.320,-0.488,33.203,0.000,0
1749426394.082,21.484,27.344,-0.488,32.227,0.000,0
1749426394.086,27.832,34.180,4.883,33.691,0.000,0
1749426394.090,45.898,39.551,10.254,42.480,0.000,0
1749426394.093,52.734,40.039,18.066,47.363,0.000,0
1749426394.097,43.945,37.598,20.508,44.434,0.000,0
1749426394.101,43.457,33.691,16.602,39.551,0.000,0
1749426394.106,44.922,24.902,11.719,31.738,0.000,0
1749426394.110,48.340,21.973,13.184,39.551,0.000,0
1749426394.114,56.152,19.531,18.555,48.340,0.000,0
1749426394.117,47.363,9.766,16.602,43.945,0.000,0
1749426394.121,35.156,2.930,13.184,35.156,0.000,0
1749426394.125,35.645,5.371,10.254,28.320,0.000,0
1749426394.129,41.016,8.301,15.625,35.156,0.000,0
1749426394.133,34.668,5.371,19.531,39.551,0.000,0
1749426394.137,33.691,-4.883,12.207,34.668,0.000,0
1749426394.140,28.320,-11.719,10.742,32.227,0.000,0
1749426394.144,32.715,-6.836,13.184,36.133,0.000,0
1749426394.148,39.062,-4.395,9.766,37.109,0.000,0
1749426394.153,30.762,-2.930,7.324,33.691,0.000,0
1749426394.157,29.297,-2.441,5.859,32.227,0.000,0
1749426394.160,28.320,-7.324,4.883,31.250,0.000,0
1749426394.164,32.715,-2.441,13.672,40.039,0.000,0
1749426394.168,32.715,0.000,14.160,39.551,0.000,0
1749426394.172,21.484,-10.742,0.488,29.785,0.000,0
1749426394.176,18.555,-13.672,-2.441,36.133,0.000,0
1749426394.180,24.902,-9.766,-0.488,36.621,0.000,0
1749426394.184,19.043,-7.324,-0.977,29.785,0.000,0
1749426394.187,22.461,-8.301,-5.371,26.367,0.000,0
1749426394.191,35.156,-10.742,-10.254,23.438,0.000,0
1749426394.195,42.969,-11.230,-3.418,35.156,0.000,0
1749426394.200,38.574,-5.859,-0.977,34.180,0.000,0
1749426394.204,38.574,-2.930,0.000,27.344,0.000,0
1749426394.207,37.598,-2.930,-0.488,27.344,0.000,0
1749426394.211,33.203,-2.930,0.000,29.785,0.000,0
1749426394.215,27.832,-6.836,0.488,32.715,0.000,0
1749426394.219,24.902,-9.277,-2.441,21.484,0.000,0
1749426394.223,28.320,-8.789,-2.441,12.207,0.000,0
1749426394.227,23.926,-13.184,1.465,20.996,0.000,0
1749426394.230,23.438,-15.625,-1.953,27.344,0.000,0
1749426394.234,28.320,-14.648,-7.812,20.020,0.000,0
1749426394.238,30.762,-10.254,-3.906,16.602,0.000,0
1749426394.242,34.668,-4.883,0.000,21.484,0.000,0
1749426394.247,40.527,-1.953,1.953,32.715,0.000,0
1749426394.250,29.785,-2.930,3.418,32.715,0.000,0
1749426394.254,22.949,-4.395,0.488,21.484,0.000,0
1749426394.258,28.809,-4.883,-0.488,19.043,0.000,0
1749426394.262,24.414,-7.812,2.441,27.344,0.000,0
1749426394.266,24.414,-7.812,5.371,30.273,0.000,0
1749426394.270,28.809,-0.977,5.859,23.926,0.000,0
1749426394.273,37.109,1.953,12.695,29.297,0.000,0
1749426394.277,48.340,3.418,17.578,43.945,0.000,0
1749426394.281,36.133,-0.488,12.695,36.133,0.000,0
1749426394.285,25.391,-7.324,3.906,25.391,0.000,0
1749426394.289,33.691,-8.301,-3.418,26.367,0.000,0
1749426394.293,44.434,-3.418,0.977,37.598,0.000,0
1749426394.297,52.246,0.000,7.324,49.805,0.000,0
1749426394.301,54.688,-3.906,5.859,51.270,0.000,0
1749426394.305,51.270,-9.277,7.324,37.598,0.000,0
1749426394.309,36.133,-14.648,8.301,27.832,0.000,0
1749426394.313,23.926,-13.184,7.324,29.785,0.000,0
1749426394.316,31.738,-10.254,4.883,24.902,0.000,0
1749426394.320,35.156,-15.137,2.930,18.555,0.000,0
1749426394.324,29.785,-15.137,1.953,20.508,0.000,0
1749426394.328,29.785,-15.625,-0.488,28.320,0.000,0
1749426394.332,31.250,-13.184,-0.488,35.645,0.000,0
1749426394.336,31.738,-13.184,-1.953,27.344,0.000,0
1749426394.340,29.785,-12.695,-6.836,26.855,0.000,0
1749426394.344,29.297,-9.766,-1.465,32.715,0.000,0
1749426394.348,35.156,-10.742,1.465,33.691,0.000,0
1749426394.352,30.273,-12.207,-6.836,26.855,0.000,0
1749426394.356,24.414,-20.508,-11.230,19.531,0.000,0
1749426394.359,26.367,-17.090,-7.324,21.484,0.000,0
1749426394.363,22.461,-11.230,2.441,30.273,0.000,0
1749426394.367,10.742,-13.184,-0.488,22.949,0.000,0
1749426394.371,-2.930,-14.648,-3.906,10.254,0.000,0
1749426394.375,-5.859,-19.043,-0.977,12.695,0.000,0
1749426394.379,-0.977,-17.090,-0.488,24.902,0.000,0
1749426394.382,-4.395,-15.625,-3.418,29.297,0.000,0
1749426394.387,-2.441,-15.137,-7.812,27.344,0.000,0
1749426394.391,-4.395,-14.648,-9.766,32.715,0.000,0
1749426394.395,-0.488,-17.090,-5.859,50.293,0.000,0
1749426394.398,-0.977,-23.926,-7.812,42.969,0.000,0
1749426394.402,-4.883,-23.438,-7.812,27.344,0.000,0
1749426394.406,-4.395,-20.020,-5.371,30.762,0.000,0
1749426394.410,-5.859,-28.809,-6.348,34.668,0.000,0
1749426394.414,3.418,-29.297,-6.348,36.621,0.000,0
1749426394.418,1.953,-26.855,-7.324,30.273,0.000,0
1749426394.422,-22.461,-36.133,-7.324,23.438,0.000,0
1749426394.425,-4.395,-36.621,-12.695,18.555,0.000,0
1749426394.429,28.809,-32.715,-20.020,17.090,0.000,0
1749426394.434,-28.320,-44.434,-29.297,4.395,0.000,0
1749426394.438,-40.527,-52.246,-27.344,8.789,0.000,0
1749426394.442,20.508,-50.781,-27.832,17.578,0.000,0
1749426394.445,38.086,-46.875,-29.785,19.531,0.000,0
1749426394.449,19.043,-43.457,-24.902,21.973,0.000,0
1749426394.453,7.324,-44.434,-27.832,15.625,0.000,0
1749426394.457,3.418,-44.922,-33.691,7.324,0.000,0
1749426394.461,4.883,-38.574,-34.180,12.695,0.000,0
1749426394.465,8.789,-36.621,-31.250,17.578,0.000,0
1749426394.469,6.348,-35.645,-28.320,16.113,0.000,0
1749426394.472,16.113,-30.273,-25.391,16.113,0.000,0
1749426394.476,5.859,-29.785,-29.297,12.207,0.000,0
1749426394.481,-29.297,-35.156,-26.855,17.090,0.000,0
1749426394.485,-20.020,-37.598,-20.508,19.531,0.000,0
1749426394.489,15.137,-31.250,-20.996,13.672,0.000,0
1749426394.492,14.160,-24.414,-15.137,18.555,0.000,0
1749426394.496,23.926,-17.090,-20.020,20.508,0.000,0
1749426394.500,41.016,-18.066,-20.508,26.855,0.000,0
1749426394.504,28.320,-26.367,-12.207,24.902,0.000,0
1749426394.508,22.461,-19.531,-3.906,23.438,0.000,0
1749426394.512,31.738,-10.742,6.348,43.945,0.000,0
1749426394.516,25.391,-14.160,0.488,38.574,0.000,0
1749426394.519,22.949,-15.625,-0.488,27.344,0.000,0
1749426394.523,22.461,-10.254,-0.977,27.832,0.000,0
1749426394.528,12.695,-6.836,0.977,28.320,0.000,0
1749426394.532,20.020,-5.859,3.418,34.180,0.000,0
1749426394.536,18.066,-8.301,4.395,33.203,0.000,0
1749426394.539,9.277,-6.348,7.324,32.227,0.000,0
1749426394.543,4.395,-0.488,8.789,40.527,0.000,0
1749426394.547,9.766,-0.488,13.672,50.781,0.000,0
1749426394.551,24.902,-1.953,13.672,46.387,0.000,0
1749426394.555,22.949,-2.930,10.742,43.945,0.000,0
1749426394.559,27.344,-0.488,13.672,43.945,0.000,0
1749426394.563,33.691,-1.953,15.137,49.805,0.000,0
1749426394.566,39.551,2.930,20.508,50.293,0.000,0
1749426394.570,41.992,5.859,19.531,37.598,0.000,0
1749426394.575,39.062,1.953,12.207,40.527,0.000,0
1749426394.579,43.945,6.348,16.602,46.387,0.000,0
1749426394.582,42.969,8.789,17.578,41.504,0.000,0
1749426394.586,38.574,0.000,9.766,38.086,0.000,0
1749426394.590,39.551,-3.906,8.789,41.016,0.000,0
1749426394.594,36.133,-1.465,16.602,54.688,0.000,0
1749426394.598,33.203,-4.395,18.066,57.129,0.000,0
1749426394.602,40.527,-3.906,17.578,52.246,0.000,0
1749426394.606,40.039,-5.859,15.137,55.176,0.000,0
1749426394.609,36.621,-7.324,13.672,48.340,0.000,0
1749426394.613,25.391,-7.812,15.137,51.270,0.000,0
1749426394.617,18.066,-9.766,13.672,63.477,0.000,0
1749426394.622,20.020,-7.324,15.625,58.594,0.000,0
1749426394.625,22.461,-7.324,16.113,55.176,0.000,0
1749426394.629,32.227,-7.812,14.648,62.500,0.000,0
1749426394.633,28.809,-6.348,14.648,58.594,0.000,0
1749426394.637,33.203,-5.371,17.090,48.340,0.000,0
1749426394.641,40.527,-0.488,18.066,55.664,0.000,0
1749426394.645,33.691,1.953,13.672,62.012,0.000,0
1749426394.649,28.320,-0.488,14.160,64.453,0.000,0
1749426394.652,27.344,-2.441,13.672,58.105,0.000,0
1749426394.656,37.598,3.418,7.324,36.133,0.000,0
1749426394.660,39.062,4.395,8.789,46.875,0.000,0
1749426394.664,28.320,1.465,9.766,57.129,0.000,0
1749426394.668,30.273,1.953,3.906,48.828,0.000,0
1749426394.672,43.457,-1.953,0.000,46.875,0.000,0
1749426394.676,41.016,0.000,3.906,55.664,0.000,0
1749426394.680,36.621,0.000,8.301,60.547,0.000,0
1749426394.684,30.273,0.488,4.883,56.152,0.000,0
1749426394.688,18.555,3.418,1.465,43.945,0.000,0
1749426394.692,24.414,5.371,6.836,45.898,0.000,0
1749426394.695,26.367,3.418,8.301,61.523,0.000,0
1749426394.699,27.344,1.953,9.277,63.477,0.000,0
1749426394.703,31.738,4.395,10.254,57.129,0.000,0
1749426394.707,42.480,5.371,12.207,61.035,0.000,0
1749426394.711,45.410,8.301,14.160,73.730,0.000,0
1749426394.715,41.504,8.301,9.277,64.453,0.000,0
1749426394.719,30.762,2.441,11.230,50.781,0.000,0
1749426394.723,32.715,-0.977,17.578,56.641,0.000,0
1749426394.727,51.270,0.000,20.020,66.895,0.000,0
1749426394.731,50.293,-1.953,21.484,64.941,0.000,0
1749426394.734,43.945,-5.371,17.090,60.547,0.000,0
1749426394.738,35.645,-8.301,14.160,55.176,0.000,0
1749426394.742,39.551,-10.742,17.578,52.246,0.000,0
1749426394.746,39.551,-8.301,17.090,62.500,0.000,0
1749426394.750,34.180,-3.418,19.043,67.383,0.000,0
1749426394.754,29.785,0.000,19.531,59.570,0.000,0
1749426394.758,31.250,4.395,17.090,58.594,0.000,0
1749426394.762,40.039,0.488,17.090,66.406,0.000,0
1749426394.766,48.340,-1.465,13.184,62.500,0.000,0
1749426394.770,41.016,10.254,3.906,43.945,0.000,0
1749426394.774,28.809,15.137,-4.883,33.203,0.000,0
1749426394.777,41.504,15.137,-2.930,44.434,0.000,0
1749426394.781,38.574,19.531,2.441,50.781,0.000,0
1749426394.785,29.297,22.949,-4.395,44.434,0.000,0
1749426394.789,32.227,18.555,-10.254,40.039,0.000,0
1749426394.793,21.484,18.066,-7.324,34.668,0.000,0
1749426394.797,22.461,20.996,-0.977,37.109,0.000,0
1749426394.801,21.973,17.090,2.441,34.180,0.000,0
1749426394.804,21.973,18.555,-1.465,25.391,0.000,0
1749426394.809,24.414,21.973,-2.930,27.832,0.000,0
1749426394.813,25.879,20.020,-0.488,35.156,0.000,0
1749426394.817,36.621,25.391,6.348,34.668,0.000,0
1749426394.821,39.551,24.414,7.324,36.621,0.000,0
1749426394.825,40.527,17.090,3.418,40.039,0.000,0
1749426394.829,44.922,19.043,3.906,46.387,0.000,0
1749426394.832,40.039,19.043,1.953,49.316,0.000,0
1749426394.836,33.691,11.230,-5.371,35.156,0.000,0
1749426394.840,33.203,0.488,-4.883,30.762,0.000,0
1749426394.844,28.809,6.348,-1.465,45.898,0.000,0
1749426394.848,28.809,11.719,1.465,51.270,0.000,0
1749426394.852,30.273,8.789,2.441,45.898,0.000,0
1749426394.856,22.949,3.906,-6.348,40.039,0.000,0
1749426394.860,24.414,2.441,-8.301,37.598,0.000,0
1749426394.864,25.391,3.906,-3.418,33.203,0.000,0
1749426394.868,20.996,-2.930,-6.836,34.180,0.000,0
1749426394.872,21.973,-4.395,-13.672,34.180,0.000,0
1749426394.876,19.043,-7.324,-13.672,31.250,0.000,0
1749426394.879,26.367,-8.789,-8.789,40.527,0.000,0
1749426394.883,24.902,-6.836,-7.812,41.992,0.000,0
1749426394.887,16.602,-10.742,-12.207,28.809,0.000,0
1749426394.891,22.949,-11.230,-8.301,34.180,0.000,0
1749426394.895,17.578,-10.742,-3.906,38.086,0.000,0
1749426394.899,6.836,-9.277,-8.789,35.156,0.000,0
1749426394.903,5.859,-13.672,-14.160,26.367,0.000,0
1749426394.907,5.371,-13.672,-18.066,20.020,0.000,0
1749426394.911,8.301,-10.254,-17.578,33.203,0.000,0
1749426394.915,7.324,-9.277,-19.043,35.645,0.000,0
1749426394.919,-3.418,-12.695,-20.020,29.785,0.000,0
1749426394.923,-17.578,-15.137,-16.602,25.391,0.000,0
1749426394.926,-20.020,-13.184,-12.695,29.297,0.000,0
1749426394.930,-19.531,-12.695,-13.184,37.598,0.000,0
1749426394.934,-28.809,-19.043,-23.438,29.297,0.000,0
1749426394.938,-32.227,-25.391,-28.320,18.555,0.000,0
1749426394.942,-26.855,-24.414,-26.855,15.625,0.000,0
1749426394.946,-17.090,-18.555,-22.461,22.949,0.000,0
1749426394.950,-14.648,-17.090,-24.414,27.832,0.000,0
1749426394.954,-16.602,-22.949,-31.250,21.484,0.000,0
1749426394.958,-19.043,-22.949,-34.180,17.578,0.000,0
1749426394.962,-20.020,-22.461,-36.133,20.996,0.000,0
1749426394.966,-8.789,-24.414,-31.738,28.320,0.000,0
1749426394.969,-7.812,-24.902,-31.250,24.902,0.000,0
1749426394.973,-8.301,-26.367,-38.086,19.043,0.000,0
1749426394.977,-10.742,-27.344,-40.039,25.391,0.000,0
1749426394.981,-8.301,-25.391,-38.574,29.785,0.000,0
1749426394.985,-6.836,-27.344,-37.109,23.926,0.000,0
1749426394.989,-9.277,-20.996,-38.086,16.113,0.000,0
1749426394.993,-1.465,-12.695,-37.598,16.113,0.000,0
1749426394.997,8.789,-9.766,-34.180,18.066,0.000,0
1749426395.001,4.395,-13.672,-41.992,12.695,0.000,0
1749426395.005,-7.812,-22.461,-47.363,16.113,0.000,0
1749426395.009,3.418,-18.555,-46.387,20.020,0.000,0
1749426395.012,15.625,-13.184,-48.828,11.719,0.000,0
1749426395.016,6.348,-16.113,-46.387,11.230,0.000,0
1749426395.020,-6.348,-20.508,-43.945,7.324,0.000,0
1749426395.024,-8.301,-22.461,-45.410,1.465,0.000,0
1749426395.028,-15.625,-23.926,-45.410,8.789,0.000,0
1749426395.032,-18.066,-21.973,-45.898,8.301,0.000,0
1749426395.036,-9.766,-19.043,-47.852,5.859,0.000,0
1749426395.039,-19.043,-26.367,-52.246,0.000,0.000,0
1749426395.044,-17.578,-28.809,-54.688,-7.324,0.000,0
1749426395.048,-2.930,-22.949,-53.223,-1.953,0.000,0
1749426395.052,-1.465,-27.344,-59.570,-2.441,0.000,0
1749426395.055,-4.395,-28.809,-69.336,-21.484,0.000,0
1749426395.059,-2.441,-26.855,-70.801,-20.996,0.000,0
1749426395.063,7.324,-23.926,-64.453,1.953,0.000,0
1749426395.067,8.301,-20.508,-65.918,4.395,0.000,0
1749426395.071,8.789,-21.973,-70.312,-1.953,0.000,0
1749426395.075,7.324,-20.996,-70.801,-10.742,0.000,0
1749426395.079,3.418,-25.391,-66.895,-11.719,0.000,0
1749426395.082,6.836,-27.344,-64.941,-8.301,0.000,0
1749426395.086,6.348,-30.762,-71.289,-14.160,0.000,0
1749426395.091,5.859,-34.180,-73.730,-21.484,0.000,0
1749426395.095,7.812,-40.039,-70.801,-17.578,0.000,0
1749426395.098,16.113,-38.086,-76.172,-14.648,0.000,0
1749426395.102,24.414,-31.738,-81.055,-14.648,0.000,0
1749426395.106,10.742,-37.598,-70.312,-14.648,0.000,0
1749426395.110,3.418,-41.016,-65.918,-14.160,0.000,0
1749426395.114,4.395,-45.410,-65.430,1.953,0.000,0
1749426395.118,4.395,-48.340,-58.594,8.301,0.000,0
1749426395.122,15.625,-43.457,-62.012,-3.418,0.000,0
1749426395.125,17.090,-45.410,-68.359,-8.789,0.000,0
1749426395.129,12.695,-46.387,-71.289,-10.742,0.000,0
1749426395.133,12.207,-48.828,-75.684,-16.113,0.000,0
1749426395.137,4.883,-49.805,-79.102,-20.020,0.000,0
1749426395.141,2.441,-48.828,-81.543,-23.438,0.000,0
1749426395.145,16.602,-42.969,-77.148,-14.648,0.000,0
1749426395.149,18.066,-39.062,-81.543,-10.254,0.000,0
1749426395.153,15.625,-39.551,-85.938,-9.766,0.000,0
1749426395.157,8.789,-43.945,-79.590,-9.277,0.000,0
1749426395.161,9.277,-43.945,-76.172,-12.207,0.000,0
1749426395.164,10.742,-43.945,-76.172,-13.672,0.000,0
1749426395.168,0.000,-48.340,-75.684,-18.555,0.000,0
1749426395.172,7.812,-45.410,-77.637,-30.762,0.000,0
1749426395.176,8.789,-41.016,-80.078,-24.414,0.000,0
1749426395.180,5.859,-39.062,-78.125,-10.254,0.000,0
1749426395.184,15.625,-37.598,-76.660,-9.277,0.000,0
1749426395.188,-0.488,-39.551,-77.637,-13.184,0.000,0
1749426395.192,-7.324,-41.016,-80.566,-19.531,0.000,0
1749426395.196,-0.488,-43.945,-83.984,-17.090,0.000,0
1749426395.200,-11.719,-47.363,-85.938,-14.648,0.000,0
1749426395.204,-14.160,-40.039,-84.961,-23.438,0.000,0
1749426395.208,-12.695,-36.621,-84.961,-26.367,0.000,0
1749426395.211,-15.137,-41.016,-85.449,-13.672,0.000,0
1749426395.215,-20.508,-42.480,-83.496,-10.254,0.000,0
1749426395.219,-15.137,-45.410,-82.520,-16.113,0.000,0
1749426395.223,-14.648,-46.875,-82.520,-15.137,0.000,0
1749426395.227,-22.949,-42.969,-87.402,-12.695,0.000,0
1749426395.231,-24.414,-44.434,-88.379,-11.230,0.000,0
1749426395.235,-9.277,-45.410,-84.961,-10.254,0.000,0
1749426395.239,-13.184,-42.480,-86.426,-20.020,0.000,0
1749426395.243,-15.625,-44.922,-82.520,-17.578,0.000,0
1749426395.247,-4.395,-37.598,-82.520,-1.465,0.000,0
1749426395.251,-15.137,-35.645,-88.867,-13.184,0.000,0
1749426395.255,-25.879,-48.340,-89.355,-25.391,0.000,0
1749426395.258,-22.949,-55.176,-96.191,-28.809,0.000,0
1749426395.262,-19.531,-55.176,-97.656,-39.062,0.000,0
1749426395.266,-13.672,-55.176,-90.332,-35.156,0.000,0
1749426395.270,-16.113,-55.664,-97.168,-36.133,0.000,0
1749426395.274,-22.461,-53.711,-102.051,-44.434,0.000,0
1749426395.278,-19.531,-51.758,-100.098,-40.039,0.000,0
1749426395.282,-29.785,-53.711,-100.586,-37.109,0.000,0
1749426395.286,-36.133,-50.781,-97.168,-44.922,0.000,0
1749426395.290,-21.484,-48.340,-96.680,-51.270,0.000,0
1749426395.294,-15.137,-47.852,-97.656,-42.480,0.000,0
1749426395.298,-19.531,-47.363,-98.145,-35.156,0.000,0
1749426395.302,-17.578,-45.898,-102.051,-41.016,0.000,0
1749426395.305,-14.648,-46.387,-109.375,-49.805,0.000,0
1749426395.309,-17.090,-49.805,-107.910,-49.316,0.000,0
1749426395.313,-17.090,-40.039,-106.445,-43.945,0.000,0
1749426395.317,-9.277,-32.715,-111.816,-44.922,0.000,0
1749426395.321,-2.441,-46.387,-99.121,-35.645,0.000,0
1749426395.325,-24.414,-62.012,-87.891,-45.898,0.000,0
1749426395.329,-32.227,-65.430,-85.449,-44.434,0.000,0
1749426395.333,-14.648,-63.965,-83.984,-24.414,0.000,0
1749426395.337,-19.043,-71.777,-84.473,-23.926,0.000,0
1749426395.341,-29.785,-80.566,-77.148,-21.973,0.000,0
1749426395.345,-24.414,-83.008,-73.730,-11.719,0.000,0
1749426395.348,-21.973,-90.332,-71.777,0.488,0.000,0
1749426395.352,-15.137,-103.516,-71.289,3.906,0.000,0
1749426395.356,-8.789,-105.469,-68.848,0.000,0.000,0
1749426395.360,-6.836,-106.445,-65.918,6.348,0.000,0
1749426395.364,-10.254,-103.027,-62.012,21.973,0.000,0
1749426395.368,-20.996,-93.262,-62.500,10.742,0.000,0
1749426395.372,-25.879,-93.262,-68.359,-3.418,0.000,0
1749426395.376,-28.320,-91.797,-73.730,-6.348,0.000,0
1749426395.380,-24.414,-81.055,-71.777,-14.648,0.000,0
1749426395.384,-15.137,-78.125,-70.801,-15.137,0.000,0
1749426395.388,-5.371,-79.102,-74.707,-17.578,0.000,0
1749426395.391,-1.953,-77.148,-74.707,-17.090,0.000,0
1749426395.395,-7.812,-75.684,-78.125,-15.625,0.000,0
1749426395.399,4.883,-72.266,-81.543,-9.766,0.000,0
1749426395.403,11.719,-69.824,-83.008,-8.789,0.000,0
1749426395.407,1.465,-64.941,-81.055,-11.230,0.000,0
1749426395.411,-8.789,-57.129,-77.148,-6.348,0.000,0
1749426395.415,-18.555,-59.082,-76.660,-0.977,0.000,0
1749426395.419,-22.461,-64.453,-81.543,-9.766,0.000,0
1749426395.423,-22.461,-63.965,-83.008,-34.180,0.000,0
1749426395.427,-36.621,-59.082,-81.055,-34.668,0.000,0
1749426395.431,-32.227,-52.734,-78.613,-17.090,0.000,0
1749426395.434,-20.996,-47.363,-79.102,-22.461,0.000,0
1749426395.438,-43.457,-53.711,-83.496,-39.062,0.000,0
1749426395.442,-41.016,-55.176,-86.426,-34.668,0.000,0
1749426395.446,-27.832,-49.316,-81.543,-26.367,0.000,0
1749426395.450,-33.691,-49.805,-83.496,-29.785,0.000,0
1749426395.454,-41.016,-50.293,-92.773,-35.645,0.000,0
1749426395.458,-47.363,-48.828,-91.797,-42.480,0.000,0
1749426395.461,-37.109,-43.945,-84.473,-40.039,0.000,0
1749426395.466,-31.738,-42.969,-81.543,-32.227,0.000,0
1749426395.470,-35.645,-46.875,-83.496,-35.645,0.000,0
1749426395.474,-41.992,-49.316,-85.449,-37.598,0.000,0
1749426395.477,-44.922,-51.270,-87.891,-38.086,0.000,0
1749426395.481,-37.598,-49.316,-88.379,-35.156,0.000,0
1749426395.485,-43.457,-48.828,-85.938,-35.645,0.000,0
1749426395.489,-45.898,-49.316,-85.938,-41.992,0.000,0
1749426395.493,-37.598,-51.758,-87.402,-48.828,0.000,0
1749426395.497,-33.203,-49.316,-79.102,-41.992,0.000,0
1749426395.501,-36.133,-45.410,-80.078,-40.039,0.000,0
1749426395.504,-41.992,-41.992,-87.402,-49.805,0.000,0
1749426395.508,-39.551,-44.922,-84.473,-49.805,0.000,0
1749426395.513,-33.203,-43.457,-80.078,-37.598,0.000,0
1749426395.516,-24.902,-33.203,-79.590,-32.227,0.000,0
1749426395.520,-24.414,-33.203,-78.125,-37.109,0.000,0
1749426395.524,-24.414,-27.832,-80.566,-39.062,0.000,0
1749426395.528,-21.973,-26.367,-79.102,-31.250,0.000,0
1749426395.532,-19.531,-31.738,-70.801,-18.066,0.000,0
1749426395.536,-19.043,-28.320,-70.801,-19.043,0.000,0
1749426395.540,-20.996,-28.809,-73.730,-25.391,0.000,0
1749426395.543,-10.254,-22.949,-66.895,-16.602,0.000,0
1749426395.547,-5.371,-18.066,-54.199,-0.977,0.000,0
1749426395.551,-12.207,-23.926,-51.758,-9.766,0.000,0
1749426395.555,-13.672,-28.320,-48.340,-11.719,0.000,0
1749426395.560,-9.277,-23.926,-40.039,0.977,0.000,0
1749426395.563,-13.184,-19.043,-38.086,-5.371,0.000,0
1749426395.567,-16.113,-20.020,-36.621,-13.672,0.000,0
1749426395.571,-18.555,-18.555,-40.527,-19.531,0.000,0
1749426395.575,-18.555,-15.625,-41.992,-25.879,0.000,0
1749426395.579,-5.859,-10.254,-35.645,-15.625,0.000,0
1749426395.583,0.488,-4.883,-36.621,-6.348,0.000,0
1749426395.587,-1.953,-6.836,-39.551,-15.137,0.000,0
1749426395.590,-0.977,-10.254,-39.551,-23.438,0.000,0
1749426395.594,13.672,-10.742,-37.598,-6.348,0.000,0
1749426395.598,19.043,-11.230,-41.016,1.465,0.000,0
1749426395.602,8.789,-7.324,-41.504,-20.996,0.000,0
1749426395.607,-1.953,-5.859,-37.598,-30.273,0.000,0
1749426395.610,-6.836,-8.301,-35.645,-25.391,0.000,0
1749426395.614,-19.531,-9.277,-22.949,-17.578,0.000,0
1749426395.618,-20.996,-12.695,-23.438,-25.391,0.000,0
1749426395.622,-22.461,-11.719,-31.250,-25.879,0.000,0
1749426395.626,-30.762,-3.418,-23.438,-8.301,0.000,0
1749426395.630,-13.184,-0.977,-14.648,9.277,0.000,0
1749426395.634,-5.859,-0.977,-14.648,9.766,0.000,0
1749426395.637,-2.930,0.488,-17.578,-4.395,0.000,0
1749426395.641,4.883,0.977,-14.160,3.906,0.000,0
1749426395.645,4.883,1.953,-8.789,13.184,0.000,0
1749426395.649,3.418,0.488,-12.207,1.465,0.000,0
1749426395.653,0.977,-10.254,-14.648,-0.977,0.000,0
1749426395.657,15.137,-15.625,-7.324,16.113,0.000,0
1749426395.661,30.273,-6.348,0.488,18.555,0.000,0
1749426395.665,44.434,0.000,7.324,19.531,0.000,0
1749426395.669,51.758,-4.395,0.977,17.578,0.000,0
1749426395.673,45.410,-4.883,-3.418,13.672,0.000,0
1749426395.677,54.199,-1.953,6.348,21.973,0.000,0
1749426395.681,59.082,3.906,7.812,24.414,0.000,0
1749426395.684,55.664,2.930,4.883,28.809,0.000,0
1749426395.688,49.805,3.906,6.348,34.668,0.000,0
1749426395.692,50.781,11.719,12.207,47.852,0.000,0
1749426395.696,57.129,12.695,16.113,52.734,0.000,0
1749426395.700,57.129,16.602,14.648,45.410,0.000,0
1749426395.704,53.223,13.672,14.648,44.434,0.000,0
1749426395.708,52.734,13.184,16.113,44.434,0.000,0
1749426395.712,51.270,14.160,17.578,54.688,0.000,0
1749426395.716,43.457,10.254,24.414,60.547,0.000,0
1749426395.720,44.434,11.719,21.973,55.176,0.000,0
1749426395.724,46.875,9.766,18.066,53.711,0.000,0
1749426395.727,59.082,13.184,23.438,38.574,0.000,0
1749426395.731,69.824,20.020,23.926,47.852,0.000,0
1749426395.735,60.059,18.555,27.832,78.125,0.000,0
1749426395.739,59.570,17.578,31.738,61.523,0.000,0
1749426395.743,62.500,19.043,29.785,47.363,0.000,0
1749426395.747,61.035,21.973,27.344,43.945,0.000,0
1749426395.751,66.406,26.367,26.855,44.922,0.000,0
1749426395.755,66.895,25.879,29.297,47.852,0.000,0
1749426395.759,65.918,27.344,33.203,53.711,0.000,0
1749426395.763,66.406,28.809,39.551,60.547,0.000,0
1749426395.767,67.871,27.344,38.086,44.434,0.000,0
1749426395.770,68.359,32.227,32.715,27.344,0.000,0
1749426395.774,61.035,34.180,34.180,30.273,0.000,0
1749426395.778,66.406,28.320,39.551,44.434,0.000,0
1749426395.782,67.383,25.391,41.992,49.316,0.000,0
1749426395.786,66.406,27.344,42.480,38.086,0.000,0
1749426395.790,74.707,28.809,40.039,40.039,0.000,0
1749426395.794,84.961,31.738,46.387,56.641,0.000,0
1749426395.798,89.844,31.250,51.758,66.895,0.000,0
1749426395.802,80.566,29.785,47.852,52.246,0.000,0
1749426395.806,73.242,27.344,41.504,39.551,0.000,0
1749426395.810,72.754,23.438,39.062,56.152,0.000,0
1749426395.813,72.754,26.367,40.527,58.594,0.000,0
1749426395.817,75.684,29.785,38.086,69.336,0.000,0
1749426395.821,76.660,25.391,36.133,63.477,0.000,0
1749426395.825,81.543,23.926,34.180,58.105,0.000,0
1749426395.829,81.543,23.438,35.645,64.453,0.000,0
1749426395.833,78.125,20.508,36.133,61.035,0.000,0
1749426395.837,82.520,17.090,32.227,55.664,0.000,0
1749426395.841,83.008,13.672,36.133,55.176,0.000,0
1749426395.845,83.984,20.020,38.086,53.223,0.000,0
1749426395.849,88.379,32.227,39.062,49.316,0.000,0
1749426395.852,83.008,33.691,43.945,50.781,0.000,0
1749426395.856,88.867,26.367,46.387,51.758,0.000,0
1749426395.860,103.516,22.461,47.852,58.105,0.000,0
1749426395.864,108.398,18.066,52.734,65.430,0.000,0
1749426395.868,110.840,17.578,48.340,53.711,0.000,0
1749426395.872,105.957,19.531,43.945,36.133,0.000,0
1749426395.876,103.027,21.973,42.969,53.711,0.000,0
1749426395.880,96.680,20.508,41.504,63.965,0.000,0
1749426395.883,101.074,20.020,43.457,59.082,0.000,0
1749426395.888,112.305,30.762,53.223,70.312,0.000,0
1749426395.892,129.395,43.945,63.477,82.031,0.000,0
1749426395.895,97.168,42.969,65.430,96.680,0.000,0
1749426395.899,19.531,40.527,67.871,111.328,0.000,0
1749426395.903,11.230,46.387,68.848,108.887,0.000,0
1749426395.907,16.113,46.387,72.266,104.004,0.000,0
1749426395.911,30.273,45.898,79.590,111.328,0.000,0
1749426395.915,40.527,47.363,81.055,120.605,0.000,0
1749426395.919,36.133,45.898,69.824,111.328,0.000,0
1749426395.922,32.715,38.086,62.500,104.492,0.000,0
1749426395.926,30.273,39.551,61.035,112.793,0.000,0
1749426395.930,30.273,41.504,60.059,120.605,0.000,0
1749426395.935,17.578,31.250,58.594,114.258,0.000,0
1749426395.939,12.695,30.762,50.293,97.168,0.000,0
1749426395.942,16.113,34.668,47.363,94.238,0.000,0
1749426395.946,20.508,31.738,47.363,102.051,0.000,0
1749426395.950,17.090,31.250,46.875,96.191,0.000,0
1749426395.954,10.254,30.762,46.387,86.914,0.000,0
1749426395.958,13.184,31.250,43.457,88.379,0.000,0
1749426395.962,10.742,30.762,48.340,89.844,0.000,0
1749426395.966,8.789,28.809,52.246,95.703,0.000,0
1749426395.969,13.672,27.344,45.410,97.168,0.000,0
1749426395.973,24.414,28.809,45.410,92.773,0.000,0
1749426395.977,33.203,30.273,46.875,91.309,0.000,0
1749426395.982,31.250,26.855,41.992,98.633,0.000,0
1749426395.986,36.621,29.297,41.016,97.656,0.000,0
1749426395.989,41.504,30.762,40.527,96.680,0.000,0
1749426395.993,43.457,29.785,31.738,93.262,0.000,0
1749426395.997,51.270,31.250,29.785,95.215,0.000,0
1749426396.001,46.387,33.203,36.133,100.586,0.000,0
1749426396.005,41.992,29.297,32.227,98.633,0.000,0
1749426396.009,41.504,20.508,27.832,107.910,0.000,0
1749426396.013,40.527,24.414,32.227,111.816,0.000,0
1749426396.016,54.199,29.297,33.691,105.957,0.000,0
1749426396.020,57.617,26.367,27.832,99.121,0.000,0
1749426396.024,52.734,24.902,22.461,97.656,0.000,0
1749426396.029,43.457,29.297,21.484,98.633,0.000,0
1749426396.032,41.504,27.832,22.461,89.844,0.000,0
1749426396.036,41.992,26.367,23.926,82.520,0.000,0
1749426396.040,38.086,25.391,16.602,72.754,0.000,0
1749426396.044,43.457,23.926,17.578,73.242,0.000,0
1749426396.048,53.223,29.785,21.973,93.262,0.000,0
1749426396.052,55.176,24.414,18.555,95.703,0.000,0
1749426396.056,53.711,14.160,16.602,84.473,0.000,0
1749426396.060,55.664,14.160,19.043,91.309,0.000,0
1749426396.063,68.848,20.020,18.066,101.562,0.000,0
1749426396.067,72.266,23.438,18.066,100.098,0.000,0
1749426396.071,64.453,20.508,17.090,97.168,0.000,0
1749426396.075,65.430,22.461,15.137,87.891,0.000,0
1749426396.079,63.477,26.367,19.043,82.520,0.000,0
1749426396.083,63.477,26.367,17.578,78.125,0.000,0
1749426396.087,62.988,26.367,17.578,71.777,0.000,0
1749426396.091,58.105,23.438,17.578,65.918,0.000,0
1749426396.095,60.059,27.832,20.508,70.801,0.000,0
1749426396.099,59.082,29.297,27.344,75.684,0.000,0
1749426396.103,51.270,24.902,26.855,80.078,0.000,0
1749426396.106,50.293,26.855,23.926,80.566,0.000,0
1749426396.110,55.664,26.367,23.926,75.195,0.000,0
1749426396.114,64.453,25.879,24.414,81.055,0.000,0
1749426396.118,66.406,28.320,25.391,73.730,0.000,0
1749426396.122,64.941,30.762,23.438,62.012,0.000,0
1749426396.126,65.918,30.273,22.461,62.500,0.000,0
1749426396.130,64.941,26.367,29.785,62.988,0.000,0
1749426396.134,65.918,26.367,29.297,59.570,0.000,0
1749426396.138,61.035,25.391,23.926,58.594,0.000,0
1749426396.142,58.594,20.020,30.273,64.453,0.000,0
1749426396.146,68.359,23.438,38.574,73.730,0.000,0
1749426396.149,66.895,24.414,39.062,80.078,0.000,0
1749426396.153,59.570,16.602,34.668,82.520,0.000,0
1749426396.157,61.035,15.625,30.762,75.684,0.000,0
1749426396.161,71.289,19.531,31.738,73.242,0.000,0
1749426396.165,74.707,23.438,37.598,81.543,0.000,0
1749426396.169,72.266,20.996,41.504,76.660,0.000,0
1749426396.173,64.941,19.043,41.016,73.242,0.000,0
1749426396.177,60.059,20.508,39.551,81.543,0.000,0
1749426396.181,63.965,18.066,38.086,83.008,0.000,0
1749426396.185,63.965,16.113,34.180,77.637,0.000,0
1749426396.189,63.477,14.160,28.809,71.289,0.000,0
1749426396.192,68.848,17.578,28.809,68.848,0.000,0
1749426396.196,65.918,20.996,30.762,78.613,0.000,0
1749426396.200,62.988,17.578,28.320,77.637,0.000,0
1749426396.204,68.359,16.602,26.855,57.129,0.000,0
1749426396.208,61.523,18.066,28.809,44.434,0.000,0
1749426396.212,63.965,17.090,30.273,47.852,0.000,0
1749426396.216,69.824,16.113,37.109,51.270,0.000,0
1749426396.220,66.895,16.602,39.062,45.410,0.000,0
1749426396.224,68.359,14.648,35.645,39.551,0.000,0
1749426396.228,65.918,13.672,36.621,46.875,0.000,0
1749426396.231,62.988,15.625,37.598,61.523,0.000,0
1749426396.235,62.012,13.672,32.715,57.129,0.000,0
1749426396.239,64.941,15.625,32.715,53.711,0.000,0
1749426396.243,63.965,13.672,33.691,62.500,0.000,0
1749426396.247,63.965,11.230,28.809,56.641,0.000,0
1749426396.251,61.035,10.254,25.879,49.316,0.000,0
1749426396.255,60.547,11.230,28.320,48.828,0.000,0
1749426396.259,66.895,15.137,32.227,47.363,0.000,0
1749426396.263,60.547,11.230,32.227,49.805,0.000,0
1749426396.267,62.988,2.930,29.785,43.457,0.000,0
1749426396.271,67.383,8.789,28.809,38.574,0.000,0
1749426396.274,60.547,8.789,31.738,42.969,0.000,0
1749426396.278,53.223,8.789,36.621,41.504,0.000,0
1749426396.282,49.316,16.602,36.621,44.434,0.000,0
1749426396.286,48.828,17.090,35.645,50.293,0.000,0
1749426396.290,51.270,15.137,30.762,50.293,0.000,0
1749426396.294,62.012,8.789,27.344,49.805,0.000,0
1749426396.298,63.965,15.137,32.715,57.129,0.000,0
1749426396.301,56.152,18.066,36.133,59.082,0.000,0
1749426396.305,56.641,14.648,34.180,46.387,0.000,0
1749426396.310,61.035,13.672,31.738,47.852,0.000,0
1749426396.314,56.152,9.766,33.203,50.293,0.000,0
1749426396.318,49.805,9.766,31.250,50.293,0.000,0
1749426396.321,46.875,11.230,25.391,48.828,0.000,0
1749426396.325,49.805,7.812,29.785,47.852,0.000,0
1749426396.329,54.688,8.789,37.598,52.734,0.000,0
1749426396.333,55.664,9.277,37.598,55.664,0.000,0
1749426396.337,50.293,5.859,32.715,46.387,0.000,0
1749426396.341,48.828,5.371,31.250,44.922,0.000,0
1749426396.345,49.805,7.324,35.645,51.758,0.000,0
1749426396.348,48.828,5.371,37.598,49.316,0.000,0
1749426396.352,43.945,4.883,34.180,39.551,0.000,0
1749426396.357,45.898,7.324,30.273,36.621,0.000,0
1749426396.361,47.363,-0.977,31.250,45.898,0.000,0
1749426396.365,36.621,5.859,30.762,44.922,0.000,0
1749426396.368,21.973,16.602,33.691,30.273,0.000,0
1749426396.372,22.461,11.719,29.785,13.184,0.000,0
1749426396.376,32.227,9.277,25.391,13.184,0.000,0
1749426396.380,19.531,8.301,30.273,9.277,0.000,0
1749426396.384,7.812,4.883,29.785,-2.441,0.000,0
1749426396.388,6.348,3.906,33.203,0.000,0.000,0
1749426396.392,-0.488,5.859,30.273,-0.488,0.000,0
1749426396.395,-2.930,10.254,26.855,-5.859,0.000,0
1749426396.399,-5.371,5.859,29.297,-4.883,0.000,0
1749426396.404,-4.395,-2.441,25.391,-7.324,0.000,0
1749426396.408,1.465,-4.395,20.508,-6.348,0.000,0
1749426396.411,7.324,-1.953,29.785,1.465,0.000,0
1749426396.415,15.625,-2.441,34.180,5.371,0.000,0
1749426396.419,10.254,-7.324,24.902,1.953,0.000,0
1749426396.423,13.184,-7.812,22.461,3.418,0.000,0
1749426396.427,23.926,-4.395,25.391,13.184,0.000,0
1749426396.431,23.926,-2.441,22.461,22.461,0.000,0
1749426396.435,20.508,-6.348,18.066,17.090,0.000,0
1749426396.439,8.789,-9.766,15.625,3.906,0.000,0
1749426396.442,-0.977,-16.113,15.625,-3.418,0.000,0
1749426396.446,4.883,-14.648,15.625,2.930,0.000,0
1749426396.451,6.348,-11.719,14.648,6.348,0.000,0
1749426396.454,7.812,-16.113,11.230,-6.836,0.000,0
1749426396.458,19.531,-17.578,11.230,-4.395,0.000,0
1749426396.462,22.461,-12.695,13.672,10.254,0.000,0
1749426396.466,22.461,-4.883,17.578,19.531,0.000,0
1749426396.470,21.973,-1.465,15.625,15.137,0.000,0
1749426396.474,22.949,-8.789,11.719,6.836,0.000,0
1749426396.478,16.602,-19.531,12.695,11.719,0.000,0
1749426396.482,11.719,-20.020,14.160,15.137,0.000,0
1749426396.485,12.695,-20.996,8.789,7.812,0.000,0
1749426396.489,8.789,-26.367,11.719,7.812,0.000,0
1749426396.493,3.906,-29.297,17.090,10.742,0.000,0
1749426396.498,16.113,-20.020,18.066,19.531,0.000,0
1749426396.502,29.785,-13.184,19.043,25.879,0.000,0
1749426396.505,32.715,-14.160,14.160,15.625,0.000,0
1749426396.509,32.227,-13.184,13.184,11.230,0.000,0
1749426396.513,32.227,-11.719,13.672,21.973,0.000,0
1749426396.517,31.250,-12.695,14.648,30.762,0.000,0
1749426396.521,27.832,-11.230,18.555,24.414,0.000,0
1749426396.525,27.832,-11.719,19.043,20.996,0.000,0
1749426396.529,27.832,-8.789,19.043,29.297,0.000,0
1749426396.533,35.645,1.953,22.949,30.762,0.000,0
1749426396.536,39.551,3.418,26.367,24.902,0.000,0
1749426396.540,31.738,-1.465,28.809,24.902,0.000,0
1749426396.545,37.109,-0.977,31.738,30.273,0.000,0
1749426396.548,45.410,1.953,33.203,32.715,0.000,0
1749426396.552,43.945,-0.977,31.250,30.273,0.000,0
1749426396.556,39.551,-1.465,29.297,23.438,0.000,0
1749426396.560,28.320,0.488,28.809,17.090,0.000,0
1749426396.564,7.812,-2.441,28.320,18.066,0.000,0
1749426396.568,3.906,-3.418,28.320,19.043,0.000,0
1749426396.572,8.789,-6.836,22.949,5.859,0.000,0
1749426396.575,5.371,-8.789,20.508,-0.977,0.000,0
1749426396.579,9.277,-2.930,24.414,9.766,0.000,0
1749426396.583,14.648,-3.418,28.809,24.414,0.000,0
1749426396.587,3.906,-5.371,24.414,1.953,0.000,0
1749426396.591,2.930,-0.977,21.973,-10.254,0.000,0
1749426396.595,11.230,-1.953,22.949,9.277,0.000,0
1749426396.599,11.230,-3.418,20.996,3.906,0.000,0
1749426396.603,5.371,-9.766,21.484,-10.742,0.000,0
1749426396.607,3.418,-10.742,21.484,-11.719,0.000,0
1749426396.611,6.348,-6.348,19.043,-12.207,0.000,0
1749426396.615,13.184,-6.348,19.531,-7.812,0.000,0
1749426396.618,15.137,-9.766,23.926,-3.418,0.000,0
1749426396.622,7.812,-10.742,23.926,-9.766,0.000,0
1749426396.626,14.648,-6.348,23.438,-8.789,0.000,0
1749426396.630,21.484,-2.930,23.438,-0.977,0.000,0
1749426396.634,16.113,-7.324,22.461,2.441,0.000,0
1749426396.638,14.648,-13.672,24.414,-3.418,0.000,0
1749426396.642,16.602,-17.578,24.414,-2.441,0.000,0
1749426396.646,17.578,-17.578,25.391,5.859,0.000,0
1749426396.650,15.137,-19.531,29.297,7.812,0.000,0
1749426396.654,11.230,-19.531,30.273,-0.488,0.000,0
1749426396.657,9.277,-20.996,30.273,-5.859,0.000,0
1749426396.661,5.371,-21.484,27.832,4.883,0.000,0
1749426396.665,-4.395,-18.555,30.762,5.859,0.000,0
1749426396.669,-20.996,-22.461,28.809,-2.930,0.000,0
1749426396.673,-25.879,-24.414,17.090,-13.184,0.000,0
1749426396.677,-19.043,-19.531,16.113,-14.160,0.000,0
1749426396.681,-16.113,-24.902,20.508,-9.277,0.000,0
1749426396.685,-10.742,-26.855,17.578,-17.578,0.000,0
1749426396.689,-17.090,-23.438,16.602,-31.250,0.000,0
1749426396.693,-15.625,-23.438,20.996,-27.344,0.000,0
1749426396.697,-16.602,-20.508,24.414,-6.836,0.000,0
1749426396.701,-28.320,-22.949,24.902,-11.230,0.000,0
1749426396.704,-20.508,-27.344,22.949,-19.531,0.000,0
1749426396.708,-20.508,-26.367,20.996,-18.555,0.000,0
1749426396.712,-27.344,-23.926,19.043,-18.066,0.000,0
1749426396.716,-24.414,-25.879,17.578,-20.020,0.000,0
1749426396.720,-18.555,-24.414,21.973,-27.344,0.000,0
1749426396.724,-22.949,-21.484,18.555,-35.156,0.000,0
1749426396.728,-25.879,-20.020,20.020,-30.762,0.000,0
1749426396.732,-25.391,-13.672,25.879,-22.949,0.000,0
1749426396.736,-27.344,-8.789,28.320,-19.531,0.000,0
1749426396.740,-33.203,-12.695,28.320,-30.762,0.000,0
1749426396.744,-36.621,-19.043,19.531,-32.715,0.000,0
1749426396.748,-39.062,-19.043,18.066,-17.578,0.000,0
1749426396.751,-52.246,-16.113,17.578,-25.391,0.000,0
1749426396.755,-53.223,-21.973,12.207,-37.598,0.000,0
1749426396.759,-48.340,-23.438,10.742,-37.598,0.000,0
1749426396.763,-57.617,-21.973,18.066,-15.625,0.000,0
1749426396.767,-51.758,-21.484,26.855,-5.859,0.000,0
1749426396.771,-53.223,-19.043,27.832,-22.461,0.000,0
1749426396.775,-62.012,-19.531,25.879,-28.809,0.000,0
1749426396.779,-53.711,-17.578,27.832,-19.531,0.000,0
1749426396.783,-51.758,-16.113,30.273,-14.648,0.000,0
1749426396.787,-62.988,-18.555,29.785,-17.090,0.000,0
1749426396.791,-66.895,-16.602,33.203,-15.625,0.000,0
1749426396.794,-62.012,-10.742,31.250,-18.555,0.000,0
1749426396.798,-60.059,-15.137,24.414,-18.066,0.000,0
1749426396.802,-56.152,-16.113,22.949,-16.113,0.000,0
1749426396.806,-62.988,-19.531,23.926,-20.020,0.000,0
1749426396.810,-59.082,-20.508,18.555,-21.484,0.000,0
1749426396.814,-44.434,-19.531,19.531,-17.578,0.000,0
1749426396.818,-46.387,-21.484,26.855,-11.719,0.000,0
1749426396.822,-56.152,-20.996,20.996,-15.625,0.000,0
1749426396.826,-54.199,-22.949,18.555,-16.602,0.000,0
1749426396.830,-43.945,-14.648,22.461,-18.066,0.000,0
1749426396.834,-41.992,-9.277,21.973,-22.461,0.000,0
1749426396.837,-32.715,-12.695,17.578,-28.320,0.000,0
1749426396.841,-31.738,-11.230,16.113,-27.832,0.000,0
1749426396.845,-44.434,-16.113,17.090,-20.020,0.000,0
1749426396.849,-42.480,-21.973,18.066,-10.742,0.000,0
1749426396.853,-36.133,-14.160,14.648,-23.438,0.000,0
1749426396.857,-33.691,-0.977,11.230,-29.297,0.000,0
1749426396.861,-40.039,8.301,5.371,-34.180,0.000,0
1749426396.865,-54.199,12.695,-2.930,-45.410,0.000,0
1749426396.868,-62.012,11.719,-2.441,-42.969,0.000,0
1749426396.873,-62.500,12.207,-5.859,-60.059,0.000,0
1749426396.877,-65.918,22.949,-7.324,-78.125,0.000,0
1749426396.880,-76.660,31.250,-6.836,-75.195,0.000,0
1749426396.884,-70.801,31.738,-12.695,-58.594,0.000,0
1749426396.888,-79.590,37.109,-18.555,-76.172,0.000,0
1749426396.892,-84.961,40.527,-24.414,-86.426,0.000,0
1749426396.896,-75.684,41.504,-25.879,-83.008,0.000,0
1749426396.900,-69.824,46.387,-24.902,-92.285,0.000,0
1749426396.904,-75.195,40.039,-21.484,-86.426,0.000,0
1749426396.908,-83.008,28.809,-4.883,-84.473,0.000,0
1749426396.911,-78.125,34.668,-4.395,-95.703,0.000,0
1749426396.915,-69.824,38.574,-16.602,-82.520,0.000,0
1749426396.920,-69.824,32.227,-11.719,-69.336,0.000,0
1749426396.923,-69.824,29.785,-9.766,-78.125,0.000,0
1749426396.927,-63.965,29.297,-9.277,-65.430,0.000,0
1749426396.931,-62.500,29.297,-3.418,-52.246,0.000,0
1749426396.935,-58.594,23.438,-5.371,-59.082,0.000,0
1749426396.939,-55.176,18.066,-8.301,-53.711,0.000,0
1749426396.943,-64.941,12.207,-9.766,-50.781,0.000,0
1749426396.947,-61.523,7.812,-9.277,-51.270,0.000,0
1749426396.951,-49.316,7.324,-11.719,-41.504,0.000,0
1749426396.954,-47.363,3.418,-13.672,-40.527,0.000,0
1749426396.958,-51.758,0.977,-12.695,-56.641,0.000,0
1749426396.962,-48.340,2.930,-19.531,-49.316,0.000,0
1749426396.966,-43.457,0.977,-13.672,-27.832,0.000,0
1749426396.970,-47.852,0.000,-8.789,-38.574,0.000,0
1749426396.974,-50.293,2.441,-10.742,-41.504,0.000,0
1749426396.978,-49.316,0.488,-6.836,-29.297,0.000,0
1749426396.982,-51.270,-1.953,-7.812,-31.250,0.000,0
1749426396.986,-54.688,1.465,-8.301,-39.062,0.000,0
1749426396.990,-51.758,0.488,-7.324,-40.527,0.000,0
1749426396.993,-41.992,-6.836,-8.301,-34.668,0.000,0
1749426396.997,-36.621,-5.371,-7.812,-30.273,0.000,0
1749426397.001,-47.852,-3.906,-0.488,-30.273,0.000,0
1749426397.005,-53.223,-11.719,-2.441,-33.203,0.000,0
1749426397.009,-45.410,-7.812,-4.883,-34.668,0.000,0
1749426397.013,-31.250,2.930,-1.465,-25.391,0.000,0
1749426397.017,-26.855,-1.953,1.953,-20.020,0.000,0
1749426397.021,-39.062,-3.418,-1.953,-25.879,0.000,0
1749426397.025,-47.363,-3.418,-11.230,-39.551,0.000,0
1749426397.029,-49.805,-4.883,-7.324,-36.621,0.000,0
1749426397.033,-44.434,-5.371,0.000,-21.973,0.000,0
1749426397.036,-46.875,-10.254,-1.953,-38.086,0.000,0
1749426397.040,-59.570,-15.137,-6.348,-49.316,0.000,0
1749426397.044,-60.547,-11.719,-7.324,-44.434,0.000,0
1749426397.048,-62.012,-10.742,-6.348,-37.598,0.000,0
1749426397.052,-69.336,-14.648,-13.184,-47.363,0.000,0
1749426397.056,-66.406,-14.160,-13.184,-51.758,0.000,0
1749426397.060,-64.941,-18.555,-6.348,-41.016,0.000,0
1749426397.064,-66.406,-15.625,-6.836,-42.969,0.000,0
1749426397.068,-65.430,-13.672,-12.695,-47.363,0.000,0
1749426397.072,-65.430,-18.555,-16.113,-45.410,0.000,0
1749426397.076,-72.266,-20.508,-13.672,-49.805,0.000,0
1749426397.080,-69.336,-17.578,-8.301,-41.016,0.000,0
1749426397.083,-62.988,-14.648,-6.836,-28.320,0.000,0
1749426397.087,-69.336,-19.531,-13.184,-41.504,0.000,0
1749426397.091,-73.730,-23.926,-14.648,-46.875,0.000,0
1749426397.095,-73.730,-21.484,-11.719,-44.434,0.000,0
1749426397.099,-66.895,-20.508,-1.465,-42.969,0.000,0
1749426397.103,-62.988,-24.414,0.000,-42.480,0.000,0
1749426397.107,-61.523,-19.531,-10.254,-43.945,0.000,0
1749426397.111,-56.641,-15.625,-6.836,-32.227,0.000,0
1749426397.115,-57.129,-20.508,-3.418,-24.414,0.000,0
1749426397.119,-58.105,-19.531,-5.371,-33.691,0.000,0
1749426397.123,-60.059,-16.602,-7.324,-45.410,0.000,0
1749426397.127,-61.035,-21.973,-11.230,-50.781,0.000,0
1749426397.130,-60.059,-22.949,-11.719,-39.551,0.000,0
1749426397.134,-58.594,-17.090,-4.883,-32.227,0.000,0
1749426397.138,-60.547,-20.020,-6.348,-42.480,0.000,0
1749426397.142,-67.871,-26.367,-12.695,-49.805,0.000,0
1749426397.146,-71.289,-22.949,-10.742,-41.016,0.000,0
1749426397.150,-68.848,-17.578,-11.719,-42.480,0.000,0
1749426397.154,-71.289,-19.043,-16.113,-50.293,0.000,0
1749426397.158,-71.289,-18.066,-15.137,-49.805,0.000,0
1749426397.162,-69.824,-16.113,-9.766,-42.480,0.000,0
1749426397.166,-70.312,-19.043,-12.695,-41.992,0.000,0
1749426397.170,-66.406,-22.949,-17.090,-42.480,0.000,0
1749426397.173,-62.500,-24.902,-16.113,-44.922,0.000,0
1749426397.177,-67.871,-16.113,-18.066,-64.453,0.000,0
1749426397.181,-62.988,-6.836,-21.484,-52.246,0.000,0
1749426397.185,-50.293,-12.695,-20.508,-30.762,0.000,0
1749426397.189,-52.734,-13.672,-15.625,-43.457,0.000,0
1749426397.193,-56.641,-11.230,-22.949,-51.270,0.000,0
1749426397.197,-61.523,-16.602,-22.949,-44.922,0.000,0
1749426397.201,-58.594,-19.531,-14.160,-42.969,0.000,0
1749426397.205,-51.270,-18.066,-12.695,-48.828,0.000,0
1749426397.209,-56.152,-15.137,-10.742,-44.434,0.000,0
1749426397.213,-57.129,-16.602,-14.648,-44.434,0.000,0
1749426397.216,-57.129,-20.020,-20.508,-59.570,0.000,0
1749426397.220,-57.617,-25.391,-21.484,-62.500,0.000,0
1749426397.224,-53.223,-31.738,-24.414,-57.129,0.000,0
1749426397.228,-45.410,-27.344,-19.043,-46.387,0.000,0
1749426397.232,-40.039,-21.973,-11.719,-37.109,0.000,0
1749426397.236,-48.828,-24.414,-14.648,-47.363,0.000,0
1749426397.240,-57.617,-28.809,-14.648,-61.035,0.000,0
1749426397.244,-57.617,-32.227,-12.695,-50.293,0.000,0
1749426397.248,-60.059,-33.203,-14.160,-47.363,0.000,0
1749426397.252,-60.547,-29.297,-18.066,-56.641,0.000,0
1749426397.256,-58.594,-29.785,-20.020,-58.594,0.000,0
1749426397.259,-60.547,-31.250,-19.531,-56.152,0.000,0
1749426397.263,-53.711,-24.902,-18.555,-50.293,0.000,0
1749426397.267,-54.199,-24.414,-18.555,-45.410,0.000,0
1749426397.271,-56.641,-25.391,-21.484,-52.734,0.000,0
1749426397.275,-61.523,-27.344,-20.508,-57.129,0.000,0
1749426397.279,-65.918,-29.785,-20.020,-49.805,0.000,0
1749426397.283,-60.547,-31.250,-23.926,-53.711,0.000,0
1749426397.287,-57.617,-34.668,-23.926,-56.152,0.000,0
1749426397.290,-55.664,-30.273,-24.414,-61.035,0.000,0
1749426397.295,-56.641,-27.344,-23.926,-68.359,0.000,0
1749426397.299,-61.523,-34.668,-23.438,-55.664,0.000,0
1749426397.302,-62.988,-36.133,-21.973,-53.223,0.000,0
1749426397.306,-56.641,-36.133,-22.461,-63.477,0.000,0
1749426397.310,-51.758,-37.598,-24.902,-64.453,0.000,0
1749426397.314,-50.293,-30.762,-20.020,-55.176,0.000,0
1749426397.318,-46.387,-29.297,-18.555,-54.688,0.000,0
1749426397.322,-41.016,-31.250,-23.438,-61.035,0.000,0
1749426397.326,-44.434,-33.203,-22.461,-58.594,0.000,0
1749426397.330,-45.410,-34.668,-16.602,-49.316,0.000,0
1749426397.333,-41.992,-28.320,-11.719,-45.898,0.000,0
1749426397.337,-47.852,-29.297,-12.695,-53.223,0.000,0
1749426397.341,-47.852,-31.250,-17.578,-64.453,0.000,0
1749426397.345,-41.504,-29.297,-16.602,-48.828,0.000,0
1749426397.349,-40.527,-26.367,-18.066,-40.039,0.000,0
1749426397.353,-36.621,-28.320,-24.902,-60.059,0.000,0
1749426397.357,-34.668,-31.250,-24.902,-55.664,0.000,0
1749426397.361,-32.715,-32.227,-17.578,-46.875,0.000,0
1749426397.365,-31.738,-29.785,-16.113,-44.922,0.000,0
1749426397.369,-40.039,-28.320,-17.090,-50.293,0.000,0
1749426397.372,-46.875,-31.738,-21.484,-62.012,0.000,0
1749426397.376,-46.875,-29.297,-23.438,-61.035,0.000,0
1749426397.380,-43.457,-29.297,-13.672,-46.875,0.000,0
1749426397.384,-43.945,-32.227,-16.602,-56.152,0.000,0
1749426397.388,-39.551,-34.668,-20.996,-71.777,0.000,0
1749426397.392,-39.062,-36.133,-21.973,-63.477,0.000,0
1749426397.396,-42.969,-29.297,-20.020,-56.152,0.000,0
1749426397.400,-44.434,-28.809,-18.066,-57.129,0.000,0
1749426397.404,-44.434,-31.738,-22.949,-65.430,0.000,0
1749426397.408,-43.457,-31.738,-29.297,-68.359,0.000,0
1749426397.411,-45.898,-33.691,-31.250,-62.500,0.000,0
1749426397.415,-44.434,-26.855,-28.320,-58.105,0.000,0
1749426397.419,-38.086,-25.879,-25.391,-54.688,0.000,0
1749426397.423,-41.504,-32.227,-26.367,-62.988,0.000,0
1749426397.427,-41.992,-35.645,-27.832,-64.941,0.000,0
1749426397.431,-40.039,-34.180,-20.020,-60.547,0.000,0
1749426397.435,-36.133,-30.273,-16.602,-61.035,0.000,0
1749426397.439,-42.969,-37.598,-22.949,-67.383,0.000,0
1749426397.443,-41.504,-42.969,-25.391,-68.848,0.000,0
1749426397.447,-18.066,-38.086,-33.203,-41.992,0.000,0
1749426397.451,-36.621,-40.527,-24.414,-47.363,0.000,0
1749426397.455,-69.824,-40.039,-14.160,-83.984,0.000,0
1749426397.458,-73.242,-33.691,-15.137,-100.098,0.000,0
1749426397.462,-82.520,-34.180,-9.766,-104.492,0.000,0
1749426397.466,-106.934,-34.668,-3.418,-118.164,0.000,0
1749426397.470,-130.859,-36.133,8.789,-131.836,0.000,0
1749426397.474,-147.461,-38.086,15.137,-138.672,0.000,0
1749426397.478,-161.133,-41.992,13.672,-142.090,0.000,0
1749426397.482,-166.992,-46.875,23.438,-132.812,0.000,0
1749426397.486,-160.645,-48.340,25.879,-135.742,0.000,0
1749426397.490,-147.949,-49.316,20.020,-149.902,0.000,0
1749426397.494,-136.230,-51.758,19.531,-141.113,0.000,0
1749426397.498,-134.766,-47.852,18.555,-122.559,0.000,0
1749426397.502,-131.348,-45.410,18.555,-116.699,0.000,0
1749426397.505,-118.652,-46.387,11.719,-117.676,0.000,0
1749426397.509,-111.328,-47.852,8.301,-110.840,0.000,0
1749426397.513,-99.609,-47.363,10.254,-98.145,0.000,0
1749426397.517,-88.379,-42.969,3.906,-98.145,0.000,0
1749426397.521,-101.074,-45.898,-4.883,-104.492,0.000,0
1749426397.525,-105.957,-48.828,-14.160,-90.820,0.000,0
1749426397.529,-91.309,-43.945,-16.113,-65.430,0.000,0
1749426397.533,-87.402,-41.016,-10.254,-49.805,0.000,0
1749426397.537,-84.961,-39.062,-7.812,-51.758,0.000,0
1749426397.541,-83.496,-43.457,-13.184,-53.711,0.000,0
1749426397.545,-82.031,-48.828,-8.789,-44.922,0.000,0
1749426397.548,-85.938,-46.387,-7.812,-46.387,0.000,0
1749426397.552,-90.332,-45.898,-12.695,-50.781,0.000,0
1749426397.556,-91.797,-46.875,-15.625,-52.734,0.000,0
1749426397.560,-91.309,-48.828,-22.949,-44.922,0.000,0
1749426397.564,-85.938,-48.828,-18.066,-28.320,0.000,0
1749426397.568,-84.961,-41.016,-13.672,-28.320,0.000,0
1749426397.572,-81.055,-35.645,-15.137,-33.203,0.000,0
1749426397.576,-76.660,-39.062,-20.508,-42.969,0.000,0
1749426397.580,-80.566,-46.875,-24.902,-44.434,0.000,0
1749426397.584,-72.754,-44.434,-23.926,-44.922,0.000,0
1749426397.588,-70.312,-38.086,-26.855,-50.293,0.000,0
1749426397.591,-76.660,-40.527,-27.344,-55.176,0.000,0
1749426397.595,-75.684,-42.480,-21.973,-46.875,0.000,0
1749426397.599,-83.008,-42.480,-21.484,-44.922,0.000,0
1749426397.603,-84.473,-47.363,-21.973,-53.223,0.000,0
1749426397.607,-71.777,-43.945,-20.996,-49.805,0.000,0
1749426397.611,-68.848,-40.039,-26.855,-49.316,0.000,0
1749426397.615,-76.172,-43.457,-32.715,-45.898,0.000,0
1749426397.619,-77.148,-43.945,-32.227,-45.898,0.000,0
1749426397.623,-74.707,-43.945,-26.855,-53.711,0.000,0
1749426397.627,-77.637,-43.457,-26.367,-57.129,0.000,0
1749426397.631,-73.730,-41.992,-22.949,-51.270,0.000,0
1749426397.634,-72.266,-44.434,-18.555,-51.270,0.000,0
1749426397.638,-83.008,-47.852,-24.414,-51.758,0.000,0
1749426397.642,-85.449,-52.246,-27.344,-52.734,0.000,0
1749426397.646,-80.566,-48.340,-23.926,-51.758,0.000,0
1749426397.650,-81.543,-45.898,-23.438,-47.363,0.000,0
1749426397.654,-75.195,-50.293,-24.414,-52.734,0.000,0
1749426397.658,-69.824,-47.852,-20.508,-51.758,0.000,0
1749426397.662,-65.430,-41.504,-19.531,-36.621,0.000,0
1749426397.665,-61.035,-42.969,-23.926,-39.062,0.000,0
1749426397.670,-61.523,-49.805,-28.320,-49.805,0.000,0
1749426397.674,-62.500,-48.340,-31.250,-44.922,0.000,0
1749426397.677,-62.988,-45.410,-27.832,-46.875,0.000,0
1749426397.681,-66.406,-44.922,-22.949,-48.828,0.000,0
1749426397.685,-70.801,-42.480,-29.785,-54.688,0.000,0
1749426397.689,-61.035,-43.457,-37.109,-61.523,0.000,0
1749426397.693,-69.336,-52.734,-26.367,-57.129,0.000,0
1749426397.697,-83.008,-56.152,-15.625,-48.340,0.000,0
1749426397.701,-87.891,-53.711,-20.020,-51.758,0.000,0
1749426397.705,-84.961,-54.199,-22.949,-58.594,0.000,0
1749426397.708,-72.754,-53.223,-20.996,-56.152,0.000,0
1749426397.712,-76.172,-47.363,-17.578,-51.270,0.000,0
1749426397.717,-81.055,-46.875,-20.020,-47.852,0.000,0
1749426397.720,-76.660,-46.875,-16.113,-52.734,0.000,0
1749426397.724,-76.660,-44.922,-14.648,-63.477,0.000,0
1749426397.728,-79.102,-48.828,-15.137,-54.199,0.000,0
1749426397.732,-82.520,-46.875,-16.602,-54.688,0.000,0
1749426397.736,-83.984,-45.898,-19.043,-67.871,0.000,0
1749426397.740,-72.266,-43.457,-18.555,-64.453,0.000,0
1749426397.744,-61.523,-41.504,-19.043,-55.664,0.000,0
1749426397.747,-62.500,-43.457,-17.578,-51.758,0.000,0
1749426397.751,-61.035,-43.457,-17.578,-52.246,0.000,0
1749426397.755,-65.918,-41.992,-18.066,-61.035,0.000,0
1749426397.759,-70.312,-37.598,-22.461,-62.988,0.000,0
1749426397.763,-65.918,-36.133,-22.461,-56.152,0.000,0
1749426397.767,-66.406,-37.598,-20.508,-61.523,0.000,0
1749426397.771,-68.359,-34.668,-20.508,-69.336,0.000,0
1749426397.775,-65.430,-34.180,-21.484,-63.965,0.000,0
1749426397.779,-64.941,-38.574,-21.973,-57.617,0.000,0
1749426397.783,-69.336,-39.062,-20.996,-58.105,0.000,0
1749426397.787,-78.613,-42.480,-21.973,-63.477,0.000,0
1749426397.790,-75.684,-41.504,-26.367,-67.871,0.000,0
1749426397.794,-68.359,-36.133,-29.785,-62.500,0.000,0
1749426397.798,-65.918,-32.227,-20.020,-53.711,0.000,0
1749426397.802,-62.988,-30.762,-16.602,-53.711,0.000,0
1749426397.806,-71.777,-35.645,-23.438,-61.035,0.000,0
1749426397.810,-74.707,-37.109,-22.461,-63.477,0.000,0
1749426397.814,-69.824,-41.504,-24.902,-56.641,0.000,0
1749426397.818,-75.195,-44.434,-29.785,-57.617,0.000,0
1749426397.822,-76.172,-44.922,-32.227,-67.871,0.000,0
1749426397.826,-76.172,-41.504,-29.785,-69.824,0.000,0
1749426397.830,-76.660,-35.156,-22.949,-55.664,0.000,0
1749426397.834,-75.195,-38.574,-20.508,-57.617,0.000,0
1749426397.837,-74.219,-42.969,-27.832,-70.312,0.000,0
1749426397.841,-77.637,-46.387,-30.762,-64.941,0.000,0
1749426397.845,-78.613,-41.992,-27.832,-54.688,0.000,0
1749426397.849,-69.824,-32.715,-27.832,-57.129,0.000,0
1749426397.853,-72.754,-32.227,-29.785,-64.453,0.000,0
1749426397.857,-73.242,-35.156,-24.414,-62.500,0.000,0
1749426397.861,-67.383,-36.133,-25.879,-56.641,0.000,0
1749426397.865,-69.336,-37.109,-32.227,-60.547,0.000,0
1749426397.869,-76.660,-43.457,-36.133,-62.500,0.000,0
1749426397.873,-74.219,-47.852,-36.133,-67.383,0.000,0
1749426397.877,-71.289,-41.016,-38.086,-71.289,0.000,0
1749426397.880,-69.824,-39.551,-30.762,-57.617,0.000,0
1749426397.884,-60.059,-39.062,-24.414,-46.875,0.000,0
1749426397.888,-65.918,-33.203,-30.273,-64.453,0.000,0
1749426397.892,-64.941,-28.809,-38.574,-81.055,0.000,0
1749426397.896,-58.594,-21.484,-40.039,-68.848,0.000,0
1749426397.900,-69.824,-21.973,-39.551,-73.242,0.000,0
1749426397.904,-76.172,-22.949,-35.645,-74.707,0.000,0
1749426397.908,-75.684,-24.902,-27.344,-65.430,0.000,0
1749426397.912,-71.777,-28.320,-30.273,-62.988,0.000,0
1749426397.916,-67.871,-27.832,-33.203,-60.059,0.000,0
1749426397.920,-67.871,-26.367,-32.715,-69.336,0.000,0
1749426397.924,-62.500,-25.879,-32.715,-71.777,0.000,0
1749426397.927,-58.594,-23.438,-29.297,-61.523,0.000,0
1749426397.931,-60.547,-22.461,-25.879,-52.246,0.000,0
1749426397.935,-65.918,-23.438,-27.344,-52.246,0.000,0
1749426397.939,-66.895,-26.855,-32.227,-55.176,0.000,0
1749426397.943,-59.570,-26.367,-32.227,-58.105,0.000,0
1749426397.947,-66.406,-27.832,-30.273,-52.734,0.000,0
1749426397.951,-70.312,-30.762,-31.738,-58.594,0.000,0
1749426397.955,-61.035,-35.156,-35.156,-71.289,0.000,0
1749426397.959,-62.012,-38.086,-34.668,-72.266,0.000,0
1749426397.963,-52.246,-36.621,-32.715,-59.082,0.000,0
1749426397.967,-45.898,-32.227,-30.762,-46.875,0.000,0
1749426397.970,-53.223,-32.715,-34.180,-53.711,0.000,0
1749426397.974,-51.758,-35.156,-40.039,-55.664,0.000,0
1749426397.978,-45.410,-35.156,-40.527,-52.734,0.000,0
1749426397.982,-47.363,-39.062,-37.598,-57.617,0.000,0
1749426397.986,-56.641,-32.715,-38.574,-67.383,0.000,0
1749426397.990,-59.570,-25.391,-42.969,-69.824,0.000,0
1749426397.994,-53.711,-30.273,-40.039,-62.988,0.000,0
1749426397.998,-59.570,-34.668,-35.156,-62.988,0.000,0
1749426398.002,-58.594,-34.180,-34.180,-70.312,0.000,0
1749426398.006,-48.340,-30.762,-30.762,-73.730,0.000,0
1749426398.010,-57.129,-35.156,-30.273,-71.289,0.000,0
1749426398.013,-53.711,-33.203,-32.715,-67.383,0.000,0
1749426398.017,-44.922,-27.832,-30.273,-62.500,0.000,0
1749426398.021,-55.176,-30.762,-31.738,-65.918,0.000,0
1749426398.025,-56.641,-32.715,-32.227,-67.871,0.000,0
1749426398.029,-49.805,-35.645,-29.785,-62.988,0.000,0
1749426398.033,-55.664,-33.691,-25.879,-53.711,0.000,0
1749426398.037,-55.664,-30.273,-22.461,-55.664,0.000,0
1749426398.041,-55.176,-29.297,-26.855,-64.941,0.000,0
1749426398.045,-55.664,-31.250,-32.227,-58.594,0.000,0
1749426398.049,-54.688,-32.715,-29.785,-52.734,0.000,0
1749426398.052,-57.617,-31.250,-28.320,-63.477,0.000,0
1749426398.056,-67.871,-34.180,-33.691,-77.148,0.000,0
1749426398.060,-69.824,-33.203,-33.691,-74.707,0.000,0
1749426398.064,-63.965,-28.320,-26.367,-65.918,0.000,0
1749426398.068,-64.453,-28.809,-27.832,-68.359,0.000,0
1749426398.072,-67.871,-33.203,-32.227,-76.172,0.000,0
1749426398.076,-69.824,-31.250,-31.738,-77.637,0.000,0
1749426398.080,-62.988,-29.297,-24.902,-67.383,0.000,0
1749426398.083,-59.570,-29.297,-22.949,-62.012,0.000,0
1749426398.087,-63.965,-30.762,-32.227,-70.312,0.000,0
1749426398.092,-61.523,-34.180,-35.156,-74.707,0.000,0
1749426398.095,-60.547,-31.250,-26.855,-63.965,0.000,0
1749426398.099,-64.941,-32.227,-26.855,-57.129,0.000,0
1749426398.103,-66.895,-32.227,-31.250,-59.082,0.000,0
1749426398.107,-62.988,-27.344,-27.344,-63.477,0.000,0
1749426398.111,-54.688,-29.785,-26.855,-60.547,0.000,0
1749426398.115,-46.875,-27.832,-23.926,-48.340,0.000,0
1749426398.119,-50.293,-29.297,-21.484,-56.152,0.000,0
1749426398.123,-59.082,-37.109,-26.367,-71.289,0.000,0
1749426398.126,-58.594,-38.086,-26.367,-66.895,0.000,0
1749426398.130,-55.664,-40.039,-23.926,-62.012,0.000,0
1749426398.134,-71.289,-38.574,-28.320,-66.895,0.000,0
1749426398.138,-85.449,-40.039,-28.320,-68.848,0.000,0
1749426398.142,-77.148,-49.805,-29.297,-71.777,0.000,0
1749426398.146,-68.359,-44.922,-29.297,-66.406,0.000,0
1749426398.150,-68.359,-36.133,-25.879,-60.059,0.000,0
1749426398.154,-63.477,-36.621,-28.809,-65.918,0.000,0
1749426398.158,-58.105,-33.691,-26.367,-61.523,0.000,0
1749426398.162,-56.152,-30.762,-26.367,-52.734,0.000,0
1749426398.165,-56.152,-31.250,-32.227,-55.176,0.000,0
1749426398.169,-51.270,-33.691,-38.086,-62.988,0.000,0
1749426398.173,-49.805,-38.086,-37.109,-70.312,0.000,0
1749426398.177,-57.129,-33.691,-33.691,-65.430,0.000,0
1749426398.181,-63.965,-31.738,-34.668,-53.223,0.000,0
1749426398.185,-68.359,-32.715,-34.180,-52.734,0.000,0
1749426398.189,-66.895,-31.250,-37.109,-62.012,0.000,0
1749426398.193,-61.035,-30.762,-35.156,-60.059,0.000,0
1749426398.197,-54.688,-31.738,-32.715,-57.129,0.000,0
1749426398.201,-52.734,-33.203,-35.156,-60.547,0.000,0
1749426398.205,-48.340,-33.203,-32.715,-62.500,0.000,0
1749426398.209,-46.875,-36.621,-32.227,-62.012,0.000,0
1749426398.212,-49.805,-36.133,-33.691,-58.594,0.000,0
1749426398.216,-51.758,-32.715,-35.645,-62.988,0.000,0
1749426398.220,-60.547,-35.645,-36.621,-69.336,0.000,0
1749426398.224,-63.477,-32.715,-32.715,-68.359,0.000,0
1749426398.228,-61.035,-24.902,-30.762,-63.965,0.000,0
1749426398.232,-59.082,-22.461,-28.809,-57.129,0.000,0
1749426398.236,-61.035,-24.902,-30.273,-57.617,0.000,0
1749426398.240,-57.129,-28.320,-33.203,-59.082,0.000,0
1749426398.244,-53.223,-29.785,-31.250,-54.688,0.000,0
1749426398.248,-58.594,-34.180,-27.344,-48.340,0.000,0
1749426398.252,-56.641,-37.109,-32.715,-53.711,0.000,0
1749426398.255,-58.594,-41.504,-43.457,-62.988,0.000,0
1749426398.259,-60.547,-41.016,-39.062,-59.570,0.000,0
1749426398.263,-55.664,-38.574,-30.273,-52.734,0.000,0
1749426398.267,-55.176,-38.574,-30.762,-54.688,0.000,0
1749426398.271,-55.664,-33.691,-33.203,-64.941,0.000,0
1749426398.275,-56.152,-33.691,-33.203,-63.965,0.000,0
1749426398.279,-62.500,-38.086,-33.691,-61.035,0.000,0
1749426398.283,-69.336,-40.039,-34.180,-66.406,0.000,0
1749426398.287,-67.871,-33.691,-33.691,-64.941,0.000,0
1749426398.291,-66.406,-26.855,-33.691,-61.523,0.000,0
1749426398.295,-64.941,-31.250,-35.156,-60.547,0.000,0
1749426398.299,-66.895,-33.203,-31.250,-56.641,0.000,0
1749426398.302,-80.078,-31.738,-29.785,-61.523,0.000,0
1749426398.306,-82.520,-33.691,-34.668,-71.289,0.000,0
1749426398.310,-69.824,-34.180,-28.809,-65.430,0.000,0
1749426398.314,-65.918,-32.715,-27.344,-60.059,0.000,0
1749426398.318,-74.219,-31.250,-32.227,-67.383,0.000,0
1749426398.322,-78.613,-33.691,-32.715,-71.777,0.000,0
1749426398.326,-73.242,-31.738,-27.344,-67.383,0.000,0
1749426398.330,-75.684,-26.367,-23.438,-70.312,0.000,0
1749426398.334,-79.102,-26.367,-26.367,-72.754,0.000,0
1749426398.338,-84.961,-28.809,-29.297,-76.660,0.000,0
1749426398.342,-83.496,-27.832,-28.809,-81.543,0.000,0
1749426398.345,-82.031,-25.879,-27.344,-72.266,0.000,0
1749426398.349,-81.543,-24.902,-28.809,-67.383,0.000,0
1749426398.353,-84.961,-27.344,-31.738,-72.754,0.000,0
1749426398.357,-90.820,-27.832,-35.645,-77.148,0.000,0
1749426398.361,-86.914,-24.414,-33.691,-68.848,0.000,0
1749426398.365,-83.496,-23.926,-35.645,-60.547,0.000,0
1749426398.369,-86.914,-28.320,-37.598,-63.965,0.000,0
1749426398.373,-86.914,-31.250,-36.621,-72.754,0.000,0
1749426398.377,-80.078,-28.320,-40.039,-73.730,0.000,0
1749426398.381,-79.102,-27.344,-36.621,-62.500,0.000,0
1749426398.385,-83.984,-31.250,-33.691,-71.289,0.000,0
1749426398.388,-83.496,-29.297,-39.062,-85.449,0.000,0
1749426398.392,-76.660,-32.227,-39.551,-79.590,0.000,0
1749426398.396,-80.566,-34.668,-38.086,-71.777,0.000,0
1749426398.400,-83.008,-29.297,-36.621,-69.824,0.000,0
1749426398.404,-78.125,-34.180,-38.574,-77.148,0.000,0
1749426398.408,-82.031,-38.574,-41.992,-83.496,0.000,0
1749426398.412,-84.473,-33.691,-35.156,-77.148,0.000,0
1749426398.416,-83.008,-33.203,-36.621,-79.590,0.000,0
1749426398.420,-83.984,-37.598,-40.527,-81.055,0.000,0
1749426398.424,-91.309,-38.086,-40.039,-82.031,0.000,0
1749426398.428,-89.844,-35.156,-34.180,-77.637,0.000,0
1749426398.431,-91.797,-43.945,-30.762,-69.824,0.000,0
1749426398.435,-90.820,-46.387,-31.738,-72.754,0.000,0
1749426398.439,-76.660,-41.992,-34.180,-75.684,0.000,0
1749426398.443,-76.172,-43.457,-36.133,-68.848,0.000,0
1749426398.447,-80.566,-42.480,-36.621,-62.500,0.000,0
1749426398.451,-84.473,-42.480,-34.180,-63.965,0.000,0
1749426398.455,-87.402,-41.504,-33.691,-72.754,0.000,0
1749426398.459,-82.520,-38.574,-39.551,-72.754,0.000,0
1749426398.462,-77.637,-41.992,-34.180,-64.453,0.000,0
1749426398.467,-69.336,-47.852,-29.297,-57.617,0.000,0
1749426398.470,-68.848,-46.875,-36.133,-63.477,0.000,0
1749426398.474,-66.406,-42.480,-37.109,-66.406,0.000,0
1749426398.478,-69.336,-48.828,-35.645,-59.082,0.000,0
1749426398.482,-77.637,-46.387,-33.691,-60.547,0.000,0
1749426398.486,-80.078,-41.504,-30.273,-60.059,0.000,0
1749426398.490,-78.613,-43.945,-31.250,-66.406,0.000,0
1749426398.494,-67.383,-41.992,-32.227,-66.895,0.000,0
1749426398.498,-63.965,-43.457,-32.715,-62.500,0.000,0
1749426398.501,-67.383,-45.410,-30.273,-61.523,0.000,0
1749426398.505,-69.824,-44.434,-27.344,-64.453,0.000,0
1749426398.509,-68.359,-47.363,-29.785,-70.801,0.000,0
1749426398.513,-69.336,-43.457,-30.273,-64.941,0.000,0
1749426398.517,-66.895,-38.574,-30.273,-54.688,0.000,0
1749426398.521,-64.941,-40.039,-36.133,-61.035,0.000,0
1749426398.525,-69.336,-40.527,-37.598,-59.570,0.000,0
1749426398.529,-64.941,-40.527,-37.598,-53.711,0.000,0
1749426398.533,-56.152,-38.574,-34.180,-58.594,0.000,0
1749426398.537,-61.523,-43.945,-27.832,-61.523,0.000,0
1749426398.541,-68.359,-46.875,-30.273,-61.035,0.000,0
1749426398.544,-64.941,-40.039,-33.691,-56.152,0.000,0
1749426398.548,-66.406,-39.062,-29.785,-58.105,0.000,0
1749426398.552,-71.777,-39.551,-29.297,-62.500,0.000,0
1749426398.556,-67.871,-35.645,-31.250,-64.941,0.000,0
1749426398.560,-60.547,-29.785,-31.250,-63.477,0.000,0
1749426398.564,-60.547,-30.273,-31.738,-58.105,0.000,0
1749426398.568,-70.312,-39.062,-29.297,-62.012,0.000,0
1749426398.572,-74.707,-43.457,-26.855,-70.312,0.000,0
1749426398.576,-67.871,-40.039,-27.344,-67.383,0.000,0
1749426398.580,-70.312,-38.086,-29.785,-59.082,0.000,0
1749426398.584,-77.148,-37.109,-28.320,-60.547,0.000,0
1749426398.587,-82.031,-33.203,-29.297,-67.871,0.000,0
1749426398.591,-77.637,-32.715,-33.691,-69.336,0.000,0
1749426398.595,-66.406,-31.250,-33.203,-62.500,0.000,0
1749426398.599,-62.988,-28.809,-28.809,-53.223,0.000,0
1749426398.603,-65.430,-30.273,-28.320,-59.082,0.000,0
1749426398.607,-70.801,-29.297,-29.297,-71.777,0.000,0
1749426398.611,-66.895,-29.297,-21.484,-64.941,0.000,0
1749426398.615,-65.430,-33.691,-20.020,-56.152,0.000,0
1749426398.619,-65.918,-33.691,-25.879,-64.453,0.000,0
1749426398.623,-62.988,-34.668,-29.785,-68.359,0.000,0
1749426398.627,-65.918,-37.109,-35.645,-65.430,0.000,0
1749426398.631,-64.941,-39.551,-37.598,-63.965,0.000,0
1749426398.634,-65.430,-37.109,-34.668,-65.918,0.000,0
1749426398.638,-76.172,-34.180,-37.598,-79.590,0.000,0
1749426398.642,-80.078,-38.086,-39.551,-80.566,0.000,0
1749426398.646,-71.777,-35.156,-33.691,-68.359,0.000,0
1749426398.650,-67.383,-27.832,-29.785,-62.988,0.000,0
1749426398.654,-73.730,-32.227,-30.762,-62.988,0.000,0
1749426398.658,-76.660,-35.156,-35.156,-67.871,0.000,0
1749426398.662,-66.406,-32.227,-34.180,-62.012,0.000,0
1749426398.666,-59.570,-29.785,-29.297,-55.176,0.000,0
1749426398.670,-62.500,-29.785,-32.715,-54.199,0.000,0
1749426398.674,-64.453,-26.855,-32.715,-58.105,0.000,0
1749426398.677,-57.617,-22.461,-26.855,-56.152,0.000,0
1749426398.681,-57.617,-22.949,-23.926,-52.246,0.000,0
1749426398.685,-60.059,-23.926,-26.855,-56.641,0.000,0
1749426398.689,-58.594,-29.297,-31.738,-61.523,0.000,0
1749426398.693,-49.316,-32.227,-34.180,-60.547,0.000,0
1749426398.697,-40.527,-27.344,-31.738,-52.246,0.000,0
1749426398.701,-50.293,-23.926,-30.273,-52.246,0.000,0
1749426398.705,-62.988,-32.227,-36.621,-61.523,0.000,0
1749426398.709,-58.105,-33.691,-36.133,-63.965,0.000,0
1749426398.713,-47.852,-32.715,-32.227,-55.664,0.000,0
1749426398.717,-43.457,-36.133,-29.785,-56.152,0.000,0
1749426398.720,-49.805,-38.086,-30.762,-58.594,0.000,0
1749426398.724,-56.641,-38.086,-31.250,-57.129,0.000,0
1749426398.728,-56.641,-38.574,-32.715,-61.035,0.000,0
1749426398.732,-52.734,-38.574,-28.320,-55.664,0.000,0
1749426398.736,-56.641,-35.156,-23.438,-50.781,0.000,0
1749426398.740,-66.406,-34.180,-28.809,-58.105,0.000,0
1749426398.744,-59.570,-31.250,-32.227,-52.734,0.000,0
1749426398.748,-55.664,-33.691,-30.273,-46.387,0.000,0
1749426398.752,-53.711,-33.691,-26.855,-51.758,0.000,0
1749426398.756,-49.316,-28.320,-26.367,-56.641,0.000,0
1749426398.760,-49.805,-33.691,-25.391,-52.734,0.000,0
1749426398.763,-50.293,-37.598,-23.438,-48.828,0.000,0
1749426398.767,-55.176,-36.133,-22.949,-45.410,0.000,0
1749426398.771,-63.965,-38.574,-25.879,-50.781,0.000,0
1749426398.775,-50.781,-38.086,-28.320,-58.594,0.000,0
1749426398.779,-40.039,-40.039,-33.203,-45.898,0.000,0
1749426398.783,-49.805,-40.527,-29.785,-45.898,0.000,0
1749426398.787,-49.805,-36.621,-27.832,-48.340,0.000,0
1749426398.791,-47.852,-42.969,-35.645,-51.270,0.000,0
1749426398.795,-58.105,-44.434,-34.180,-57.617,0.000,0
1749426398.799,-60.059,-35.645,-32.227,-48.828,0.000,0
1749426398.803,-53.223,-32.227,-34.668,-46.875,0.000,0
1749426398.806,-50.293,-30.762,-35.156,-58.105,0.000,0
1749426398.810,-50.781,-32.227,-36.133,-61.523,0.000,0
1749426398.814,-56.641,-37.109,-35.156,-54.688,0.000,0
1749426398.818,-58.594,-35.645,-38.574,-50.781,0.000,0
1749426398.822,-51.758,-31.250,-35.645,-51.270,0.000,0
1749426398.826,-49.805,-35.156,-30.762,-58.105,0.000,0
1749426398.830,-52.246,-34.668,-31.738,-61.035,0.000,0
1749426398.834,-48.828,-33.691,-34.180,-54.199,0.000,0
1749426398.837,-47.852,-35.156,-36.133,-55.176,0.000,0
1749426398.842,-54.688,-33.691,-33.203,-60.059,0.000,0
1749426398.846,-53.223,-37.109,-37.109,-60.059,0.000,0
1749426398.849,-41.992,-37.598,-42.969,-53.711,0.000,0
1749426398.853,-54.199,-47.852,-39.062,-54.199,0.000,0
1749426398.857,-63.477,-58.105,-36.133,-62.988,0.000,0
1749426398.861,-46.387,-58.105,-35.156,-58.594,0.000,0
1749426398.865,-34.180,-58.594,-31.250,-46.875,0.000,0
1749426398.869,-23.926,-54.199,-25.391,-35.645,0.000,0
1749426398.873,-25.391,-46.875,-28.320,-36.133,0.000,0
1749426398.877,-31.250,-46.875,-28.320,-36.621,0.000,0
1749426398.880,-24.414,-47.852,-21.973,-27.344,0.000,0
1749426398.884,-25.879,-47.363,-21.973,-29.297,0.000,0
1749426398.888,-35.645,-48.340,-24.902,-42.480,0.000,0
1749426398.892,-31.738,-46.875,-28.809,-39.551,0.000,0
1749426398.896,-31.738,-43.945,-26.367,-23.438,0.000,0
1749426398.900,-38.086,-41.992,-28.809,-28.320,0.000,0
1749426398.904,-43.945,-45.898,-33.203,-39.551,0.000,0
1749426398.908,-37.598,-46.387,-32.715,-39.062,0.000,0
1749426398.912,-30.762,-47.363,-35.645,-33.691,0.000,0
1749426398.916,-29.297,-47.852,-34.668,-30.762,0.000,0
1749426398.919,-22.949,-41.016,-34.180,-31.250,0.000,0
1749426398.923,-20.020,-39.062,-38.086,-31.738,0.000,0
1749426398.927,-18.555,-39.551,-39.062,-29.297,0.000,0
1749426398.931,-18.066,-38.086,-38.574,-25.391,0.000,0
1749426398.935,-19.043,-40.039,-29.785,-29.785,0.000,0
1749426398.939,-23.926,-41.504,-24.414,-36.621,0.000,0
1749426398.943,-29.785,-38.086,-27.832,-37.109,0.000,0
1749426398.947,-25.391,-33.691,-23.926,-30.273,0.000,0
1749426398.951,-18.555,-31.250,-20.020,-29.785,0.000,0
1749426398.955,-18.555,-34.668,-20.996,-38.574,0.000,0
1749426398.959,-20.020,-34.668,-22.949,-41.992,0.000,0
1749426398.963,-21.484,-33.203,-30.273,-34.668,0.000,0
1749426398.966,-26.855,-34.668,-30.762,-32.227,0.000,0
1749426398.970,-29.785,-31.250,-25.391,-33.691,0.000,0
1749426398.974,-37.598,-34.180,-28.809,-38.574,0.000,0
1749426398.978,-31.250,-32.227,-29.785,-38.574,0.000,0
1749426398.982,-20.508,-25.879,-29.297,-35.156,0.000,0
1749426398.986,-26.367,-31.250,-30.762,-37.598,0.000,0
1749426398.990,-28.809,-32.227,-27.832,-46.875,0.000,0
1749426398.994,-24.902,-29.785,-24.902,-56.152,0.000,0
1749426398.998,-23.926,-31.250,-24.902,-55.176,0.000,0
1749426399.002,-26.855,-30.762,-26.367,-50.293,0.000,0
1749426399.006,-35.645,-35.645,-28.320,-57.617,0.000,0
1749426399.009,-41.504,-35.156,-29.785,-58.594,0.000,0
1749426399.013,-38.574,-31.738,-25.391,-48.340,0.000,0
1749426399.017,-34.180,-31.738,-23.438,-41.504,0.000,0
1749426399.021,-29.297,-32.227,-30.762,-44.922,0.000,0
1749426399.025,-29.297,-30.273,-37.598,-47.852,0.000,0
1749426399.029,-28.809,-27.344,-35.156,-36.133,0.000,0
1749426399.033,-29.297,-31.250,-32.227,-27.832,0.000,0
1749426399.037,-34.180,-31.738,-34.668,-39.062,0.000,0
1749426399.041,-28.809,-33.691,-30.762,-44.922,0.000,0
1749426399.045,-25.391,-32.715,-25.879,-31.738,0.000,0
1749426399.049,-32.715,-31.250,-37.598,-38.086,0.000,0
1749426399.053,-28.320,-27.832,-43.457,-54.688,0.000,0
1749426399.056,-18.555,-26.855,-36.133,-49.805,0.000,0
1749426399.060,-29.785,-37.598,-30.762,-43.457,0.000,0
1749426399.064,-36.621,-43.457,-27.832,-27.832,0.000,0
1749426399.068,-33.203,-46.387,-24.414,-15.625,0.000,0
1749426399.072,-37.598,-50.781,-23.926,-29.785,0.000,0
1749426399.076,-36.133,-54.199,-27.344,-22.949,0.000,0
1749426399.080,-33.691,-50.781,-27.832,-16.602,0.000,0
1749426399.084,-32.715,-44.922,-26.367,-25.391,0.000,0
1749426399.088,-36.621,-42.969,-27.832,-34.180,0.000,0
1749426399.092,-36.133,-48.828,-28.320,-38.086,0.000,0
1749426399.096,-29.785,-46.387,-26.855,-28.809,0.000,0
1749426399.099,-39.062,-41.504,-25.391,-26.855,0.000,0
1749426399.103,-45.410,-43.457,-25.391,-33.203,0.000,0
1749426399.107,-40.527,-41.016,-27.344,-32.227,0.000,0
1749426399.111,-46.875,-38.086,-26.855,-28.320,0.000,0
1749426399.115,-54.688,-38.086,-28.320,-30.762,0.000,0
1749426399.119,-55.176,-36.621,-29.297,-29.297,0.000,0
1749426399.123,-55.176,-31.250,-25.391,-29.785,0.000,0
1749426399.127,-62.012,-30.273,-21.973,-33.203,0.000,0
1749426399.131,-63.477,-31.250,-25.879,-34.180,0.000,0
1749426399.135,-62.012,-30.273,-29.785,-32.227,0.000,0
1749426399.139,-68.848,-36.621,-31.250,-37.598,0.000,0
1749426399.142,-65.430,-34.180,-28.809,-41.992,0.000,0
1749426399.146,-61.035,-30.273,-28.320,-34.180,0.000,0
1749426399.150,-59.570,-34.180,-28.809,-34.668,0.000,0
1749426399.154,-62.012,-34.180,-24.902,-39.551,0.000,0
1749426399.158,-63.965,-35.645,-25.391,-40.527,0.000,0
1749426399.162,-63.965,-36.621,-23.438,-36.133,0.000,0
1749426399.166,-69.336,-35.156,-22.461,-37.598,0.000,0
1749426399.170,-68.359,-36.621,-20.508,-41.992,0.000,0
1749426399.174,-65.430,-37.109,-18.555,-42.969,0.000,0
1749426399.178,-66.895,-34.180,-23.438,-41.504,0.000,0
1749426399.182,-64.453,-33.691,-22.949,-30.762,0.000,0
1749426399.186,-58.594,-33.203,-22.949,-32.227,0.000,0
1749426399.189,-65.430,-30.762,-29.297,-44.434,0.000,0
1749426399.193,-68.848,-34.668,-30.273,-43.457,0.000,0
1749426399.197,-60.547,-35.156,-25.391,-34.668,0.000,0
1749426399.201,-64.453,-33.203,-27.832,-44.434,0.000,0
1749426399.205,-72.266,-35.156,-31.250,-55.664,0.000,0
1749426399.209,-69.336,-31.738,-26.855,-51.270,0.000,0
1749426399.213,-60.547,-33.691,-22.949,-41.992,0.000,0
1749426399.217,-53.223,-32.227,-23.926,-44.922,0.000,0
1749426399.221,-54.199,-32.227,-29.785,-52.734,0.000,0
1749426399.225,-61.035,-40.039,-34.180,-54.688,0.000,0
1749426399.229,-60.059,-38.086,-36.133,-50.293,0.000,0
1749426399.232,-53.711,-27.832,-30.273,-41.992,0.000,0
1749426399.236,-55.176,-26.367,-26.855,-41.992,0.000,0
1749426399.240,-53.711,-24.902,-32.715,-45.898,0.000,0
1749426399.244,-46.387,-20.996,-32.227,-40.527,0.000,0
1749426399.248,-46.387,-21.973,-29.297,-36.133,0.000,0
1749426399.252,-53.711,-21.484,-34.668,-44.922,0.000,0
1749426399.256,-53.711,-25.879,-38.574,-45.898,0.000,0
1749426399.260,-46.875,-24.414,-40.039,-40.039,0.000,0
1749426399.264,-47.363,-20.508,-36.621,-42.480,0.000,0
1749426399.268,-51.758,-25.879,-34.180,-43.457,0.000,0
1749426399.271,-47.852,-31.250,-38.574,-51.758,0.000,0
1749426399.275,-48.828,-34.668,-38.574,-55.664,0.000,0
1749426399.279,-51.270,-34.180,-35.156,-48.340,0.000,0
1749426399.283,-46.875,-32.715,-30.762,-44.922,0.000,0
1749426399.287,-41.504,-35.645,-34.180,-47.363,0.000,0
1749426399.291,-40.527,-37.598,-39.551,-47.363,0.000,0
1749426399.295,-40.527,-35.156,-37.598,-41.504,0.000,0
1749426399.299,-44.434,-34.180,-36.621,-43.945,0.000,0
1749426399.302,-49.316,-33.691,-37.109,-51.270,0.000,0
1749426399.306,-52.246,-31.738,-38.086,-51.758,0.000,0
1749426399.310,-50.293,-29.785,-38.574,-46.387,0.000,0
1749426399.314,-43.945,-24.902,-32.715,-41.504,0.000,0
1749426399.318,-42.969,-25.879,-29.785,-51.758,0.000,0
1749426399.322,-43.945,-31.738,-33.203,-60.059,0.000,0
1749426399.326,-50.293,-33.203,-36.133,-55.176,0.000,0
1749426399.330,-53.711,-34.180,-31.250,-50.293,0.000,0
1749426399.334,-53.223,-32.715,-25.879,-43.945,0.000,0
1749426399.338,-51.758,-32.227,-26.855,-46.875,0.000,0
1749426399.341,-52.734,-33.691,-33.691,-54.199,0.000,0
1749426399.345,-51.758,-35.156,-33.203,-52.246,0.000,0
1749426399.349,-47.852,-28.809,-22.949,-48.340,0.000,0
1749426399.353,-50.293,-22.461,-22.949,-49.316,0.000,0
1749426399.357,-44.434,-22.949,-28.320,-55.664,0.000,0
1749426399.361,-38.086,-23.438,-32.227,-53.711,0.000,0
1749426399.365,-39.062,-17.578,-36.621,-53.223,0.000,0
1749426399.369,-38.574,-18.066,-36.621,-54.688,0.000,0
1749426399.373,-45.898,-20.996,-34.668,-50.781,0.000,0
1749426399.377,-47.852,-22.949,-32.715,-53.223,0.000,0
1749426399.381,-41.992,-24.902,-32.715,-55.176,0.000,0
1749426399.385,-45.898,-26.855,-35.645,-49.316,0.000,0
1749426399.388,-48.828,-31.250,-32.227,-53.223,0.000,0
1749426399.392,-47.852,-29.785,-31.738,-57.129,0.000,0
1749426399.396,-46.875,-28.809,-31.250,-45.410,0.000,0
1749426399.400,-43.457,-36.133,-30.762,-43.457,0.000,0
1749426399.404,-36.621,-35.645,-30.762,-46.875,0.000,0
1749426399.408,-34.180,-30.273,-31.738,-41.992,0.000,0
1749426399.412,-49.805,-24.414,-29.785,-38.574,0.000,0
1749426399.416,-51.270,-23.438,-27.832,-37.598,0.000,0
1749426399.420,-46.875,-28.809,-29.785,-47.852,0.000,0
1749426399.424,-46.875,-32.227,-30.762,-53.711,0.000,0
1749426399.428,-41.016,-34.668,-31.738,-49.805,0.000,0
1749426399.431,-42.480,-35.156,-29.297,-37.109,0.000,0
1749426399.435,-46.387,-30.762,-27.344,-33.691,0.000,0
1749426399.439,-45.898,-34.180,-25.391,-41.016,0.000,0
1749426399.443,-44.434,-36.133,-24.902,-37.598,0.000,0
1749426399.447,-41.504,-29.297,-23.926,-28.809,0.000,0
1749426399.451,-46.387,-29.785,-23.926,-32.227,0.000,0
1749426399.455,-51.758,-34.180,-28.809,-43.457,0.000,0
1749426399.459,-43.457,-31.738,-31.738,-42.480,0.000,0
1749426399.463,-35.156,-28.320,-26.367,-42.480,0.000,0
1749426399.467,-41.504,-25.391,-24.414,-41.504,0.000,0
1749426399.471,-48.340,-28.809,-35.156,-46.387,0.000,0
1749426399.474,-48.828,-33.691,-36.133,-58.594,0.000,0
1749426399.478,-53.223,-30.762,-30.762,-53.223,0.000,0
1749426399.482,-51.270,-32.715,-29.785,-44.434,0.000,0
1749426399.486,-51.270,-33.691,-33.203,-47.852,0.000,0
1749426399.490,-58.594,-29.785,-36.621,-51.758,0.000,0
1749426399.494,-60.059,-29.785,-35.645,-52.734,0.000,0
1749426399.498,-58.105,-31.250,-35.156,-54.688,0.000,0
1749426399.502,-54.199,-29.297,-36.621,-55.664,0.000,0
1749426399.506,-52.246,-30.762,-35.645,-60.059,0.000,0
1749426399.510,-47.852,-35.156,-35.645,-64.453,0.000,0
1749426399.514,-46.387,-35.645,-40.039,-58.105,0.000,0
1749426399.517,-51.758,-31.738,-35.156,-50.781,0.000,0
1749426399.521,-56.641,-31.250,-31.738,-57.129,0.000,0
1749426399.525,-55.176,-36.133,-32.227,-56.641,0.000,0
1749426399.529,-50.293,-39.551,-33.203,-49.316,0.000,0
1749426399.533,-58.105,-35.645,-36.621,-49.805,0.000,0
1749426399.537,-68.848,-32.715,-48.340,-64.453,0.000,0
1749426399.541,-58.594,-40.527,-55.664,-64.453,0.000,0
1749426399.545,-51.270,-42.480,-50.781,-53.223,0.000,0
1749426399.549,-49.805,-33.203,-47.852,-47.363,0.000,0
1749426399.553,-43.457,-36.133,-44.434,-52.246,0.000,0
1749426399.557,-50.293,-42.480,-46.387,-67.871,0.000,0
1749426399.560,-41.016,-37.598,-50.781,-61.035,0.000,0
1749426399.564,-38.574,-30.273,-41.016,-45.898,0.000,0
1749426399.568,-41.016,-32.715,-36.133,-50.781,0.000,0
1749426399.572,-34.668,-36.621,-36.621,-56.641,0.000,0
1749426399.576,-38.086,-38.086,-37.109,-55.176,0.000,0
1749426399.580,-41.016,-35.645,-39.551,-51.758,0.000,0
1749426399.584,-41.016,-33.691,-35.156,-45.898,0.000,0
1749426399.588,-37.598,-31.250,-35.645,-48.828,0.000,0
1749426399.592,-33.691,-34.668,-39.551,-55.176,0.000,0
1749426399.596,-25.391,-36.133,-39.062,-52.246,0.000,0
1749426399.600,-22.949,-37.109,-40.039,-47.852,0.000,0
1749426399.603,-33.203,-44.922,-44.434,-51.758,0.000,0
1749426399.607,-30.273,-48.340,-45.410,-57.617,0.000,0
1749426399.611,-27.344,-44.434,-44.922,-55.664,0.000,0
1749426399.615,-27.344,-36.133,-41.016,-47.852,0.000,0
1749426399.619,-28.320,-40.527,-41.504,-50.293,0.000,0
1749426399.623,-41.504,-42.480,-44.434,-58.594,0.000,0
1749426399.627,-45.898,-38.574,-41.504,-50.781,0.000,0
1749426399.631,-38.086,-36.621,-41.504,-47.852,0.000,0
1749426399.634,-35.645,-34.180,-43.945,-50.781,0.000,0
1749426399.639,-41.992,-40.039,-45.410,-54.688,0.000,0
1749426399.642,-37.598,-41.016,-44.922,-53.711,0.000,0
1749426399.646,-33.203,-36.621,-39.551,-41.992,0.000,0
1749426399.650,-37.109,-35.645,-34.180,-42.969,0.000,0
1749426399.654,-43.457,-41.016,-34.180,-52.734,0.000,0
1749426399.658,-40.039,-44.434,-40.039,-57.617,0.000,0
1749426399.662,-26.855,-42.480,-38.086,-45.898,0.000,0
1749426399.666,-31.738,-41.016,-33.203,-41.016,0.000,0
1749426399.670,-37.109,-36.621,-32.227,-46.387,0.000,0
1749426399.673,-40.039,-34.668,-34.180,-53.223,0.000,0
1749426399.677,-44.434,-34.180,-41.992,-55.664,0.000,0
1749426399.681,-41.016,-32.715,-40.039,-50.781,0.000,0
1749426399.686,-47.363,-33.203,-35.156,-53.223,0.000,0
1749426399.689,-46.875,-35.156,-37.598,-58.105,0.000,0
1749426399.693,-47.363,-32.227,-39.062,-60.059,0.000,0
1749426399.697,-53.223,-32.715,-35.156,-48.340,0.000,0
1749426399.701,-52.246,-34.180,-34.180,-45.898,0.000,0
1749426399.705,-43.457,-30.762,-35.645,-50.293,0.000,0
1749426399.709,-47.363,-34.668,-34.668,-48.340,0.000,0
1749426399.713,-50.293,-40.527,-39.062,-48.340,0.000,0
1749426399.717,-47.852,-37.598,-43.945,-50.781,0.000,0
1749426399.720,-51.270,-39.551,-40.039,-51.270,0.000,0
1749426399.724,-49.805,-41.016,-37.598,-56.641,0.000,0
1749426399.728,-45.410,-40.039,-43.945,-57.129,0.000,0
1749426399.732,-37.109,-38.574,-39.551,-48.828,0.000,0
1749426399.736,-32.715,-35.645,-35.156,-46.387,0.000,0
1749426399.740,-28.809,-38.086,-39.551,-44.922,0.000,0
1749426399.744,-22.461,-33.691,-35.645,-35.156,0.000,0
1749426399.748,-23.926,-28.320,-33.691,-34.668,0.000,0
1749426399.752,-24.902,-29.785,-39.062,-42.480,0.000,0
1749426399.756,-19.531,-34.668,-40.039,-43.945,0.000,0
1749426399.760,-16.113,-35.645,-35.645,-40.527,0.000,0
1749426399.763,-13.672,-30.762,-36.133,-33.203,0.000,0
1749426399.767,-22.461,-28.320,-34.180,-30.273,0.000,0
1749426399.771,-30.273,-28.809,-40.527,-43.945,0.000,0
1749426399.775,-26.855,-24.414,-41.992,-47.852,0.000,0
1749426399.779,-24.414,-24.902,-40.039,-44.922,0.000,0
1749426399.783,-25.879,-27.832,-43.945,-51.758,0.000,0
1749426399.787,-31.250,-30.273,-43.457,-55.664,0.000,0
1749426399.791,-34.668,-34.180,-44.922,-62.012,0.000,0
1749426399.795,-25.879,-34.180,-45.410,-52.246,0.000,0
1749426399.799,-19.531,-32.227,-38.574,-43.457,0.000,0
1749426399.803,-22.949,-32.227,-36.133,-47.852,0.000,0
1749426399.806,-23.926,-31.738,-37.598,-48.828,0.000,0
1749426399.810,-18.555,-30.762,-35.645,-45.898,0.000,0
1749426399.814,-14.160,-35.156,-34.180,-40.039,0.000,0
1749426399.818,-20.996,-34.180,-36.133,-44.434,0.000,0
1749426399.822,-19.531,-31.738,-38.086,-52.734,0.000,0
1749426399.826,-17.578,-37.598,-33.691,-53.223,0.000,0
1749426399.830,-23.926,-38.574,-34.180,-46.875,0.000,0
1749426399.834,-18.066,-34.180,-38.574,-42.480,0.000,0
1749426399.838,-15.137,-34.180,-40.527,-49.805,0.000,0
1749426399.842,-16.602,-35.156,-42.969,-58.105,0.000,0
1749426399.846,-14.648,-33.203,-40.527,-46.875,0.000,0
1749426399.850,-9.766,-31.250,-33.203,-37.598,0.000,0
1749426399.853,-8.301,-37.109,-28.320,-38.574,0.000,0
1749426399.857,-13.184,-38.574,-27.832,-39.551,0.000,0
1749426399.861,-13.672,-33.691,-25.391,-38.574,0.000,0
1749426399.865,-9.277,-32.227,-24.902,-35.645,0.000,0
1749426399.869,-2.441,-29.297,-33.691,-39.062,0.000,0
1749426399.873,1.953,-33.203,-38.574,-38.574,0.000,0
1749426399.877,-18.066,-42.969,-34.180,-41.992,0.000,0
1749426399.881,-20.996,-48.340,-30.762,-34.668,0.000,0
1749426399.885,-7.324,-53.223,-23.438,-16.113,0.000,0
1749426399.889,-5.371,-58.594,-20.996,-22.949,0.000,0
1749426399.893,0.000,-61.035,-18.066,-20.020,0.000,0
1749426399.896,0.488,-64.453,-11.230,2.930,0.000,0
1749426399.900,2.441,-70.312,-4.395,10.742,0.000,0
1749426399.904,9.277,-74.707,-3.906,19.043,0.000,0
1749426399.908,10.254,-77.637,-3.906,20.508,0.000,0
1749426399.912,16.602,-75.195,-0.488,26.855,0.000,0
1749426399.916,21.484,-80.566,3.418,39.062,0.000,0
1749426399.920,24.902,-82.031,-1.465,35.156,0.000,0
1749426399.924,24.902,-77.637,-4.395,34.668,0.000,0
1749426399.928,9.277,-74.707,-3.418,39.551,0.000,0
1749426399.932,-2.930,-73.730,-9.277,32.715,0.000,0
1749426399.935,-8.301,-72.754,-13.184,21.973,0.000,0
1749426399.939,-8.301,-68.359,-13.672,19.043,0.000,0
1749426399.943,-12.695,-70.312,-9.766,22.461,0.000,0
1749426399.947,-13.184,-70.801,-10.254,25.879,0.000,0
1749426399.951,-15.137,-71.289,-13.184,20.508,0.000,0
1749426399.955,-18.555,-66.406,-15.137,12.695,0.000,0
1749426399.959,-17.090,-59.570,-14.160,13.672,0.000,0
1749426399.963,-12.207,-62.500,-9.766,14.648,0.000,0
1749426399.967,-13.672,-61.035,-11.230,7.812,0.000,0
1749426399.971,-20.996,-56.152,-18.066,-1.465,0.000,0
1749426399.975,-25.391,-53.711,-19.531,0.000,0.000,0
1749426399.978,-27.832,-55.176,-22.461,0.000,0.000,0
1749426399.982,-20.508,-54.199,-30.762,-2.930,0.000,0
1749426399.986,-20.508,-50.293,-31.250,-1.465,0.000,0
1749426399.990,-19.531,-46.387,-26.855,-7.324,0.000,0
1749426399.994,-17.578,-43.945,-24.414,-4.883,0.000,0
1749426399.998,-19.043,-41.016,-27.344,-3.418,0.000,0
1749426400.002,-23.438,-40.039,-35.156,-10.742,0.000,0
1749426400.006,-25.879,-39.551,-30.762,-7.812,0.000,0
1749426400.009,-12.207,-36.621,-26.855,-0.488,0.000,0
1749426400.014,-8.301,-38.574,-27.344,-0.977,0.000,0
1749426400.017,-9.766,-39.062,-31.250,-5.371,0.000,0
1749426400.021,-10.742,-38.086,-34.668,-8.301,0.000,0
1749426400.025,-13.672,-37.598,-31.738,-5.859,0.000,0
1749426400.029,-12.207,-40.039,-33.691,-1.465,0.000,0
1749426400.033,-7.324,-36.621,-33.203,-4.883,0.000,0
1749426400.037,-19.531,-34.668,-29.297,-14.648,0.000,0
1749426400.041,-24.414,-39.062,-32.715,-18.066,0.000,0
1749426400.045,-16.113,-31.250,-33.691,-14.160,0.000,0
1749426400.048,-20.020,-31.738,-38.086,-18.066,0.000,0
1749426400.052,-27.832,-40.039,-36.621,-24.902,0.000,0
1749426400.056,-31.738,-40.039,-34.668,-26.367,0.000,0
1749426400.061,-24.902,-40.039,-44.434,-25.879,0.000,0
1749426400.064,-23.438,-40.039,-44.922,-22.949,0.000,0
1749426400.068,-30.762,-36.133,-36.133,-24.902,0.000,0
1749426400.072,-35.645,-38.574,-35.156,-33.691,0.000,0
1749426400.076,-42.969,-42.969,-38.086,-40.527,0.000,0
1749426400.080,-41.504,-53.223,-30.762,-37.109,0.000,0
1749426400.084,-16.602,-52.734,-26.855,-17.578,0.000,0
1749426400.088,-19.531,-31.250,-40.527,-42.969,0.000,0
1749426400.092,-61.523,-24.414,-41.016,-90.332,0.000,0
1749426400.095,-86.914,-28.809,-26.367,-94.238,0.000,0
1749426400.099,-104.004,-22.461,-22.949,-104.492,0.000,0
1749426400.103,-133.789,-12.207,-25.391,-141.602,0.000,0
1749426400.107,-153.320,0.488,-25.391,-165.527,0.000,0
1749426400.111,-161.133,7.324,-18.555,-181.152,0.000,0
1749426400.115,-187.012,12.695,-19.531,-201.172,0.000,0
1749426400.119,-207.520,21.484,-26.855,-214.844,0.000,0
1749426400.123,-202.637,22.949,-34.180,-229.004,0.000,0
1749426400.127,-192.871,28.809,-36.621,-226.074,0.000,0
1749426400.131,-180.664,32.227,-33.203,-215.332,0.000,0
1749426400.135,-169.434,25.391,-41.016,-205.078,0.000,0
1749426400.138,-164.062,21.484,-49.805,-193.848,0.000,0
1749426400.142,-144.531,21.484,-46.875,-177.246,0.000,0
1749426400.146,-135.254,20.020,-39.062,-156.250,0.000,0
1749426400.150,-132.812,14.160,-40.039,-146.484,0.000,0
1749426400.154,-117.188,10.254,-46.387,-137.207,0.000,0
1749426400.158,-104.980,9.277,-53.711,-125.488,0.000,0
1749426400.162,-96.191,5.859,-55.176,-113.281,0.000,0
1749426400.166,-81.055,0.488,-55.664,-106.934,0.000,0
1749426400.170,-72.266,-4.395,-59.082,-101.074,0.000,0
1749426400.174,-62.012,-7.812,-56.641,-93.262,0.000,0
1749426400.178,-48.340,-3.418,-53.223,-78.125,0.000,0
1749426400.182,-44.434,-2.441,-52.246,-66.406,0.000,0
1749426400.185,-39.551,-7.324,-45.898,-60.547,0.000,0
1749426400.189,-34.668,-13.672,-49.805,-61.035,0.000,0
1749426400.193,-27.832,-12.207,-58.594,-61.523,0.000,0
1749426400.197,-21.484,-14.648,-57.617,-51.270,0.000,0
1749426400.201,-21.484,-17.090,-57.617,-49.316,0.000,0
1749426400.205,-26.855,-16.602,-57.129,-50.293,0.000,0
1749426400.209,-27.344,-19.043,-56.152,-50.293,0.000,0
1749426400.213,-25.391,-19.531,-56.152,-44.922,0.000,0
1749426400.217,-23.926,-22.949,-51.758,-32.715,0.000,0
1749426400.221,-24.414,-20.020,-45.898,-33.203,0.000,0
1749426400.225,-15.625,-20.020,-45.410,-41.016,0.000,0
1749426400.228,-3.906,-22.949,-40.527,-31.250,0.000,0
1749426400.232,-8.789,-18.555,-36.621,-25.391,0.000,0
1749426400.236,-15.625,-20.020,-40.527,-27.832,0.000,0
1749426400.240,-16.602,-25.879,-46.387,-31.250,0.000,0
1749426400.244,-12.207,-25.879,-43.457,-37.598,0.000,0
1749426400.248,-10.254,-24.902,-35.156,-31.250,0.000,0
1749426400.252,-18.555,-25.391,-34.180,-23.926,0.000,0
1749426400.256,-23.438,-25.391,-38.086,-32.227,0.000,0
1749426400.260,-25.879,-27.832,-43.945,-39.062,0.000,0
1749426400.264,-28.320,-28.320,-41.504,-34.180,0.000,0
1749426400.268,-33.203,-26.367,-40.039,-32.227,0.000,0
1749426400.271,-39.551,-23.926,-41.992,-41.016,0.000,0
1749426400.275,-33.691,-24.902,-33.691,-34.668,0.000,0
1749426400.279,-29.297,-23.926,-31.738,-24.414,0.000,0
1749426400.283,-33.203,-21.484,-36.621,-24.902,0.000,0
1749426400.287,-31.250,-20.996,-35.645,-30.762,0.000,0
1749426400.291,-30.273,-24.414,-37.109,-41.504,0.000,0
1749426400.295,-37.598,-29.785,-41.504,-37.598,0.000,0
1749426400.299,-41.016,-28.809,-41.504,-38.086,0.000,0
1749426400.303,-39.551,-27.832,-37.598,-38.574,0.000,0
1749426400.307,-39.062,-28.320,-39.062,-42.969,0.000,0
1749426400.310,-33.691,-26.855,-40.039,-39.551,0.000,0
1749426400.314,-26.855,-26.367,-36.133,-28.809,0.000,0
1749426400.318,-24.414,-27.344,-34.180,-33.203,0.000,0
1749426400.322,-20.508,-29.297,-35.645,-32.227,0.000,0
1749426400.326,-22.949,-30.273,-34.668,-28.809,0.000,0
1749426400.330,-20.020,-27.832,-32.715,-25.879,0.000,0
1749426400.334,-16.602,-27.832,-33.203,-22.461,0.000,0
1749426400.338,-20.996,-31.738,-37.598,-24.414,0.000,0
1749426400.342,-31.250,-33.203,-40.527,-30.273,0.000,0
1749426400.346,-33.203,-33.203,-41.992,-24.902,0.000,0
1749426400.350,-28.320,-35.645,-44.434,-22.461,0.000,0
1749426400.353,-34.668,-34.180,-43.945,-26.855,0.000,0
1749426400.357,-34.668,-31.250,-45.410,-31.738,0.000,0
1749426400.361,-20.996,-26.855,-41.504,-26.855,0.000,0
1749426400.365,-14.160,-23.438,-37.109,-12.695,0.000,0
1749426400.369,-16.602,-23.926,-36.133,-13.672,0.000,0
1749426400.373,-14.648,-28.320,-37.109,-16.602,0.000,0
1749426400.377,-9.766,-30.273,-34.668,-16.113,0.000,0
1749426400.381,-0.977,-28.809,-34.180,-13.184,0.000,0
1749426400.384,-1.953,-32.715,-40.527,-16.602,0.000,0
1749426400.389,-1.465,-31.250,-32.715,-25.879,0.000,0
1749426400.392,3.906,-26.855,-23.926,-18.555,0.000,0
1749426400.396,5.859,-26.855,-26.855,-6.348,0.000,0
1749426400.400,0.488,-27.344,-27.344,-8.301,0.000,0
1749426400.404,-13.184,-29.297,-29.297,-21.484,0.000,0
1749426400.408,-16.113,-36.621,-32.227,-26.367,0.000,0
1749426400.412,-13.184,-36.621,-33.203,-18.066,0.000,0
1749426400.416,-5.371,-34.668,-33.691,-10.742,0.000,0
1749426400.420,-11.230,-32.715,-30.762,-14.648,0.000,0
1749426400.424,-19.043,-32.715,-33.203,-20.996,0.000,0
1749426400.427,-10.742,-32.715,-36.621,-20.020,0.000,0
1749426400.431,-2.930,-28.809,-33.203,-12.207,0.000,0
1749426400.436,-5.371,-30.273,-29.785,-12.695,0.000,0
1749426400.439,-5.371,-32.227,-33.691,-21.973,0.000,0
1749426400.443,-6.348,-34.180,-38.574,-18.066,0.000,0
1749426400.447,-13.184,-34.668,-36.621,-7.324,0.000,0
1749426400.451,-13.672,-30.273,-34.180,-14.160,0.000,0
1749426400.455,-13.672,-32.715,-36.621,-23.926,0.000,0
1749426400.459,-16.602,-36.621,-38.574,-26.367,0.000,0
1749426400.463,-16.113,-33.691,-38.086,-27.832,0.000,0
1749426400.467,-15.137,-28.809,-34.180,-25.879,0.000,0
1749426400.470,-13.184,-26.367,-32.715,-26.367,0.000,0
1749426400.474,-10.254,-25.879,-32.227,-25.879,0.000,0
1749426400.478,-11.230,-29.297,-30.273,-26.367,0.000,0
1749426400.482,-12.695,-31.738,-30.273,-22.461,0.000,0
1749426400.486,-10.742,-30.762,-32.227,-17.578,0.000,0
1749426400.490,-10.254,-32.227,-31.738,-19.043,0.000,0
1749426400.494,-17.090,-34.180,-38.086,-33.691,0.000,0
1749426400.498,-21.484,-32.227,-37.598,-26.855,0.000,0
1749426400.502,-18.066,-27.832,-32.227,-18.555,0.000,0
1749426400.506,-15.625,-27.832,-33.691,-32.227,0.000,0
1749426400.510,-13.184,-32.227,-34.668,-31.738,0.000,0
1749426400.514,-10.254,-30.273,-36.133,-19.043,0.000,0
1749426400.517,-15.625,-27.344,-39.062,-15.137,0.000,0
1749426400.521,-18.066,-32.715,-37.109,-21.973,0.000,0
1749426400.525,-18.555,-33.203,-34.668,-21.973,0.000,0
1749426400.529,-14.648,-29.785,-33.203,-13.672,0.000,0
1749426400.533,-7.324,-27.832,-30.762,-6.836,0.000,0
1749426400.537,-8.301,-26.855,-27.832,-11.230,0.000,0
1749426400.541,-8.789,-31.250,-30.273,-19.043,0.000,0
1749426400.545,-4.395,-29.297,-36.621,-17.578,0.000,0
1749426400.549,-0.977,-24.414,-35.645,-14.160,0.000,0
1749426400.553,-6.348,-35.645,-38.574,-11.719,0.000,0
1749426400.557,0.977,-41.992,-40.039,-10.254,0.000,0
1749426400.560,9.766,-26.855,-40.527,-16.113,0.000,0
1749426400.564,4.395,-16.113,-41.504,-16.602,0.000,0
1749426400.568,-0.977,-13.184,-38.574,-18.555,0.000,0
1749426400.572,-1.953,-8.301,-47.363,-31.250,0.000,0
1749426400.576,-7.324,-8.301,-52.734,-31.738,0.000,0
1749426400.580,-17.090,-14.160,-57.617,-33.691,0.000,0
1749426400.584,-16.113,-16.602,-56.641,-37.598,0.000,0
1749426400.588,-18.555,-13.184,-49.316,-41.504,0.000,0
1749426400.592,-23.926,-13.184,-47.852,-39.551,0.000,0
1749426400.596,-17.090,-15.137,-44.434,-35.156,0.000,0
1749426400.600,-13.672,-14.160,-40.527,-30.762,0.000,0
1749426400.603,-20.020,-16.113,-41.016,-31.250,0.000,0
1749426400.607,-17.578,-19.531,-39.062,-31.738,0.000,0
1749426400.611,-13.184,-18.555,-36.621,-30.762,0.000,0
1749426400.615,-12.695,-16.113,-38.086,-33.203,0.000,0
1749426400.619,-14.160,-20.508,-36.133,-32.227,0.000,0
1749426400.623,-14.160,-27.832,-37.598,-33.691,0.000,0
1749426400.627,-20.996,-29.297,-40.527,-34.180,0.000,0
1749426400.631,-22.461,-23.438,-34.668,-31.738,0.000,0
1749426400.635,-19.043,-21.484,-30.273,-23.926,0.000,0
1749426400.639,-20.020,-23.438,-30.273,-27.344,0.000,0
1749426400.643,-13.672,-22.949,-33.691,-31.738,0.000,0
1749426400.646,-15.625,-21.484,-37.598,-33.691,0.000,0
1749426400.650,-18.555,-20.508,-33.691,-29.785,0.000,0
1749426400.654,-18.555,-22.461,-31.250,-27.832,0.000,0
1749426400.658,-20.996,-25.391,-27.832,-30.273,0.000,0
1749426400.662,-16.113,-22.949,-20.996,-21.484,0.000,0
1749426400.666,-10.742,-22.461,-19.531,-19.043,0.000,0
1749426400.670,-11.719,-27.832,-22.461,-19.531,0.000,0
1749426400.674,-11.230,-26.855,-24.902,-20.996,0.000,0
1749426400.678,-8.301,-26.855,-25.879,-20.508,0.000,0
1749426400.682,-14.160,-30.762,-26.367,-19.531,0.000,0
1749426400.686,-16.602,-30.762,-23.926,-18.555,0.000,0
1749426400.689,-16.113,-28.320,-26.367,-18.555,0.000,0
1749426400.693,-20.508,-28.809,-23.438,-30.762,0.000,0
1749426400.697,-26.367,-29.297,-19.531,-29.785,0.000,0
1749426400.701,-25.879,-26.855,-25.879,-25.391,0.000,0
1749426400.705,-25.391,-26.855,-27.832,-33.203,0.000,0
1749426400.709,-26.855,-25.391,-26.367,-27.344,0.000,0
1749426400.713,-28.809,-25.879,-28.809,-25.391,0.000,0
1749426400.717,-34.668,-31.250,-32.227,-28.809,0.000,0
1749426400.721,-40.039,-31.738,-38.574,-32.227,0.000,0
1749426400.725,-36.621,-28.809,-35.156,-32.227,0.000,0
1749426400.728,-33.203,-32.227,-27.344,-25.391,0.000,0
1749426400.732,-39.551,-33.691,-29.297,-26.855,0.000,0
1749426400.736,-39.062,-29.785,-29.785,-35.645,0.000,0
1749426400.740,-37.109,-32.227,-29.297,-38.086,0.000,0
1749426400.744,-41.992,-32.715,-33.691,-30.762,0.000,0
1749426400.748,-35.645,-28.320,-33.203,-21.484,0.000,0
1749426400.752,-38.086,-28.320,-31.250,-24.414,0.000,0
1749426400.756,-45.898,-32.715,-37.109,-39.062,0.000,0
1749426400.760,-48.828,-33.691,-34.668,-34.668,0.000,0
1749426400.764,-46.875,-29.297,-30.273,-24.414,0.000,0
1749426400.768,-44.434,-27.832,-31.738,-24.902,0.000,0
1749426400.771,-49.316,-28.320,-32.715,-32.715,0.000,0
1749426400.775,-41.992,-26.855,-31.738,-32.227,0.000,0
1749426400.779,-41.016,-30.762,-30.273,-25.879,0.000,0
1749426400.783,-48.340,-35.645,-30.762,-29.297,0.000,0
1749426400.787,-50.293,-34.180,-29.297,-29.297,0.000,0
1749426400.791,-41.504,-28.320,-28.320,-21.973,0.000,0
1749426400.795,-36.621,-25.879,-25.879,-25.391,0.000,0
1749426400.799,-41.992,-29.297,-27.832,-28.320,0.000,0
1749426400.802,-44.922,-24.414,-31.738,-31.738,0.000,0
1749426400.806,-27.832,-22.949,-33.691,-28.320,0.000,0
1749426400.811,-18.555,-29.297,-31.250,-9.277,0.000,0
1749426400.814,-37.598,-37.598,-23.438,-15.625,0.000,0
1749426400.818,-41.504,-40.039,-20.508,-20.996,0.000,0
1749426400.822,-43.945,-44.434,-23.926,-22.949,0.000,0
1749426400.826,-50.293,-50.781,-27.344,-26.855,0.000,0
1749426400.830,-40.527,-47.363,-26.367,-17.578,0.000,0
1749426400.834,-48.340,-43.457,-25.879,-19.531,0.000,0
1749426400.838,-55.664,-42.969,-29.785,-30.273,0.000,0
1749426400.842,-46.875,-39.062,-29.297,-30.762,0.000,0
1749426400.846,-39.551,-38.574,-25.391,-17.578,0.000,0
1749426400.849,-38.574,-42.969,-26.855,-19.531,0.000,0
1749426400.853,-37.598,-41.992,-27.832,-28.809,0.000,0
1749426400.858,-36.621,-50.781,-29.297,-32.715,0.000,0
1749426400.861,-41.504,-53.223,-33.203,-31.738,0.000,0
1749426400.865,-40.039,-45.898,-29.785,-24.414,0.000,0
1749426400.869,-38.086,-44.922,-30.762,-27.344,0.000,0
1749426400.873,-35.645,-48.340,-32.715,-32.715,0.000,0
1749426400.877,-32.227,-48.340,-32.715,-30.273,0.000,0
1749426400.881,-25.391,-41.992,-30.762,-21.973,0.000,0
1749426400.885,-17.090,-41.992,-27.344,-18.066,0.000,0
1749426400.889,-21.973,-43.945,-26.855,-29.785,0.000,0
1749426400.892,-21.484,-40.527,-29.785,-36.133,0.000,0
1749426400.896,-19.043,-37.598,-26.855,-24.414,0.000,0
1749426400.900,-18.555,-31.738,-27.832,-21.973,0.000,0
1749426400.904,-21.973,-29.297,-34.668,-31.250,0.000,0
1749426400.908,-22.461,-31.738,-34.180,-26.367,0.000,0
1749426400.912,-16.602,-31.250,-29.785,-19.531,0.000,0
1749426400.916,-12.695,-31.250,-30.762,-20.508,0.000,0
1749426400.920,-7.324,-32.715,-26.855,-15.625,0.000,0
1749426400.924,-4.395,-30.273,-21.973,-20.020,0.000,0
1749426400.928,-7.812,-30.762,-30.273,-22.461,0.000,0
1749426400.932,-9.277,-33.691,-30.762,-13.184,0.000,0
1749426400.935,-5.371,-30.762,-27.344,-13.184,0.000,0
1749426400.939,-6.836,-33.691,-29.785,-19.043,0.000,0
1749426400.943,-11.719,-34.668,-33.691,-25.391,0.000,0
1749426400.947,-3.418,-30.273,-35.645,-20.508,0.000,0
1749426400.951,3.418,-30.762,-28.809,-12.695,0.000,0
1749426400.955,-0.977,-32.227,-30.273,-17.090,0.000,0
1749426400.959,4.883,-27.832,-35.156,-20.996,0.000,0
1749426400.963,6.348,-23.438,-28.320,-11.719,0.000,0
1749426400.967,-4.395,-28.809,-26.367,-9.766,0.000,0
1749426400.971,-10.742,-32.227,-34.668,-19.043,0.000,0
1749426400.975,-12.695,-38.086,-38.086,-26.855,0.000,0
1749426400.978,-12.207,-37.598,-36.133,-23.438,0.000,0
1749426400.982,-12.207,-31.738,-36.621,-20.996,0.000,0
1749426400.986,-20.020,-34.180,-39.551,-36.133,0.000,0
1749426400.990,-23.926,-38.086,-43.457,-39.062,0.000,0
1749426400.994,-19.531,-39.551,-45.898,-35.156,0.000,0
1749426400.998,-19.043,-40.039,-39.551,-37.598,0.000,0
1749426401.002,-21.484,-33.203,-37.598,-38.086,0.000,0
1749426401.006,-27.344,-35.645,-40.527,-43.457,0.000,0
1749426401.010,-22.949,-42.480,-39.551,-41.504,0.000,0
1749426401.014,-15.625,-36.133,-41.992,-35.645,0.000,0
1749426401.018,-22.461,-35.156,-41.016,-30.762,0.000,0
1749426401.021,-23.438,-38.086,-38.086,-33.691,0.000,0
1749426401.025,-14.160,-31.250,-35.645,-36.133,0.000,0
1749426401.029,-8.789,-33.691,-34.180,-27.832,0.000,0
1749426401.033,-12.207,-35.645,-37.598,-30.762,0.000,0
1749426401.037,-13.184,-35.645,-36.621,-33.203,0.000,0
1749426401.041,-17.090,-40.039,-34.668,-33.203,0.000,0
1749426401.045,-29.297,-36.621,-36.133,-31.250,0.000,0
1749426401.049,-30.762,-33.691,-35.156,-28.809,0.000,0
1749426401.053,-32.227,-34.668,-34.668,-39.062,0.000,0
1749426401.057,-31.250,-32.227,-38.574,-50.293,0.000,0
1749426401.061,-19.531,-33.203,-38.574,-44.434,0.000,0
1749426401.064,-24.414,-35.645,-35.156,-31.250,0.000,0
1749426401.068,-28.809,-34.668,-37.109,-30.762,0.000,0
1749426401.072,-19.043,-36.621,-36.133,-37.598,0.000,0
1749426401.076,-19.531,-35.645,-34.180,-38.574,0.000,0
1749426401.080,-25.879,-36.621,-34.668,-30.273,0.000,0
1749426401.084,-33.691,-38.574,-33.691,-30.762,0.000,0
1749426401.088,-43.457,-41.016,-34.180,-37.598,0.000,0
1749426401.092,-49.805,-42.969,-39.551,-41.016,0.000,0
1749426401.096,-42.969,-39.551,-38.086,-39.551,0.000,0
1749426401.100,-36.621,-35.156,-35.645,-34.180,0.000,0
1749426401.104,-37.598,-38.086,-38.086,-38.086,0.000,0
1749426401.107,-36.621,-37.598,-34.180,-38.086,0.000,0
1749426401.111,-39.062,-34.668,-29.785,-32.715,0.000,0
1749426401.115,-34.180,-33.203,-30.273,-28.809,0.000,0
1749426401.119,-41.992,-32.715,-31.738,-33.691,0.000,0
1749426401.123,-45.410,-32.227,-36.133,-42.480,0.000,0
1749426401.127,-29.297,-27.832,-40.527,-38.574,0.000,0
1749426401.131,-29.785,-27.344,-38.086,-33.691,0.000,0
1749426401.135,-28.320,-34.668,-33.691,-30.762,0.000,0
1749426401.139,-19.043,-32.227,-28.320,-24.414,0.000,0
1749426401.143,-19.531,-22.949,-29.785,-29.785,0.000,0
1749426401.146,-22.461,-20.020,-42.969,-32.715,0.000,0
1749426401.150,-25.879,-18.555,-45.898,-33.203,0.000,0
1749426401.154,-32.227,-13.184,-43.945,-43.457,0.000,0
1749426401.158,-39.062,-10.742,-50.293,-52.734,0.000,0
1749426401.162,-34.180,-14.160,-52.734,-54.688,0.000,0
1749426401.166,-29.297,-11.719,-51.270,-48.828,0.000,0
1749426401.170,-30.762,-11.719,-54.688,-50.293,0.000,0
1749426401.174,-33.691,-17.090,-51.758,-57.617,0.000,0
1749426401.178,-33.203,-20.508,-44.434,-53.711,0.000,0
1749426401.181,-29.297,-21.973,-44.922,-50.781,0.000,0
1749426401.186,-28.809,-21.484,-46.387,-54.688,0.000,0
1749426401.190,-30.762,-25.391,-46.875,-51.758,0.000,0
1749426401.193,-26.367,-26.367,-48.340,-51.758,0.000,0
1749426401.197,-26.367,-21.973,-49.805,-53.711,0.000,0
1749426401.201,-27.832,-24.414,-47.852,-48.828,0.000,0
1749426401.205,-20.020,-22.949,-47.852,-45.410,0.000,0
1749426401.209,-16.113,-21.973,-46.387,-43.457,0.000,0
1749426401.213,-12.207,-27.344,-41.016,-45.410,0.000,0
1749426401.217,-4.395,-24.902,-39.062,-39.062,0.000,0
1749426401.221,-7.812,-25.391,-38.086,-40.039,0.000,0
1749426401.224,-7.812,-25.391,-40.039,-49.316,0.000,0
1749426401.228,-6.348,-21.484,-44.434,-41.992,0.000,0
1749426401.233,-14.160,-23.926,-48.340,-35.156,0.000,0
1749426401.236,-18.555,-26.367,-49.805,-46.875,0.000,0
1749426401.240,-23.926,-22.949,-52.734,-54.688,0.000,0
1749426401.244,-31.250,-20.996,-46.875,-43.457,0.000,0
1749426401.248,-39.551,-23.926,-41.016,-42.969,0.000,0
1749426401.252,-48.828,-29.785,-44.922,-49.316,0.000,0
1749426401.256,-43.945,-30.273,-44.434,-47.852,0.000,0
1749426401.260,-38.574,-32.227,-44.434,-41.016,0.000,0
1749426401.264,-39.062,-37.598,-42.480,-30.273,0.000,0
1749426401.268,-32.227,-33.691,-38.574,-26.855,0.000,0
1749426401.271,-30.273,-33.203,-44.434,-34.668,0.000,0
1749426401.275,-29.297,-35.645,-44.922,-36.133,0.000,0
1749426401.279,-26.855,-35.645,-41.016,-29.785,0.000,0
1749426401.283,-26.367,-34.668,-34.180,-27.344,0.000,0
1749426401.287,-23.438,-37.109,-30.273,-30.273,0.000,0
1749426401.291,-26.367,-39.062,-37.109,-34.668,0.000,0
1749426401.295,-30.762,-33.203,-33.203,-29.297,0.000,0
1749426401.299,-27.344,-36.621,-32.715,-28.809,0.000,0
1749426401.303,-23.926,-37.109,-37.598,-35.156,0.000,0
1749426401.307,-22.949,-35.156,-31.250,-39.062,0.000,0
1749426401.311,-19.531,-34.180,-28.320,-36.621,0.000,0
1749426401.314,-15.625,-36.621,-29.785,-27.344,0.000,0
1749426401.318,-18.066,-41.504,-33.691,-28.809,0.000,0
1749426401.322,-16.602,-32.227,-34.668,-29.785,0.000,0
1749426401.326,-15.137,-30.273,-34.668,-33.691,0.000,0
1749426401.330,-13.672,-33.203,-39.551,-41.992,0.000,0
1749426401.334,1.465,-29.785,-43.945,-32.715,0.000,0
1749426401.338,-4.883,-34.180,-30.762,-18.555,0.000,0
1749426401.342,-35.645,-38.086,-21.484,-26.855,0.000,0
1749426401.346,-38.086,-36.621,-24.414,-23.438,0.000,0
1749426401.350,-27.344,-35.156,-17.578,-14.648,0.000,0
1749426401.354,-25.879,-40.527,-18.066,-16.602,0.000,0
1749426401.357,-33.203,-49.316,-22.461,-20.508,0.000,0
1749426401.361,-28.320,-43.457,-16.602,-20.020,0.000,0
1749426401.365,-23.926,-40.039,-13.672,-15.137,0.000,0
1749426401.369,-27.344,-39.551,-11.230,-12.207,0.000,0
1749426401.373,-26.855,-40.039,-11.230,-15.137,0.000,0
1749426401.377,-26.367,-44.434,-14.648,-13.184,0.000,0
1749426401.381,-28.320,-42.969,-9.277,-3.906,0.000,0
1749426401.385,-28.320,-37.598,-13.184,-6.836,0.000,0
1749426401.389,-23.926,-39.062,-14.648,-12.695,0.000,0
1749426401.393,-23.926,-40.527,-18.066,-10.742,0.000,0
1749426401.397,-22.949,-37.598,-23.926,-4.395,0.000,0
1749426401.400,-26.367,-39.062,-20.508,-7.812,0.000,0
1749426401.404,-24.902,-38.086,-20.020,-16.113,0.000,0
1749426401.408,-22.949,-37.109,-27.832,-20.508,0.000,0
1749426401.412,-18.066,-40.039,-28.809,-18.066,0.000,0
1749426401.416,-19.043,-44.434,-26.855,-19.043,0.000,0
1749426401.420,-25.391,-48.340,-30.273,-26.855,0.000,0
1749426401.424,-17.578,-43.457,-27.832,-27.832,0.000,0
1749426401.428,-10.254,-37.109,-25.879,-22.461,0.000,0
1749426401.432,-8.301,-30.762,-20.996,-18.066,0.000,0
1749426401.436,-6.836,-26.855,-16.602,-16.113,0.000,0
1749426401.439,-9.277,-29.297,-25.391,-22.949,0.000,0
1749426401.443,-19.043,-34.668,-34.668,-33.691,0.000,0
1749426401.447,-19.043,-33.691,-29.785,-25.879,0.000,0
1749426401.451,-7.324,-29.785,-30.273,-24.414,0.000,0
1749426401.455,-11.230,-32.715,-36.621,-32.227,0.000,0
1749426401.459,-14.648,-34.180,-34.668,-32.227,0.000,0
1749426401.463,-8.301,-27.344,-31.738,-28.320,0.000,0
1749426401.467,-12.695,-26.367,-31.250,-31.250,0.000,0
1749426401.471,-18.555,-31.250,-36.133,-35.156,0.000,0
1749426401.475,-19.043,-25.391,-39.062,-33.691,0.000,0
1749426401.479,-20.508,-27.344,-35.156,-41.016,0.000,0
1749426401.482,-17.090,-35.156,-30.273,-37.598,0.000,0
1749426401.486,-23.926,-34.668,-30.273,-32.715,0.000,0
1749426401.490,-30.762,-33.203,-27.832,-31.250,0.000,0
1749426401.494,-26.855,-37.109,-27.344,-31.250,0.000,0
1749426401.498,-28.320,-37.598,-35.156,-34.668,0.000,0
1749426401.502,-27.832,-37.598,-35.645,-33.203,0.000,0
1749426401.506,-22.461,-32.715,-32.715,-35.156,0.000,0
1749426401.510,-21.484,-30.762,-33.203,-35.156,0.000,0
1749426401.514,-20.508,-35.156,-31.250,-28.320,0.000,0
1749426401.518,-11.719,-29.785,-27.832,-25.879,0.000,0
1749426401.521,-7.812,-25.879,-30.273,-28.809,0.000,0
1749426401.525,-10.254,-25.391,-34.180,-34.180,0.000,0
1749426401.529,-11.230,-26.367,-32.227,-31.738,0.000,0
1749426401.533,-18.066,-28.320,-33.691,-34.180,0.000,0
1749426401.537,-26.855,-29.297,-33.691,-36.133,0.000,0
1749426401.541,-18.555,-26.367,-34.180,-26.367,0.000,0
1749426401.545,-16.602,-26.855,-33.691,-18.066,0.000,0
1749426401.549,-27.344,-32.227,-25.879,-17.090,0.000,0
1749426401.553,-41.016,-37.109,-23.438,-27.344,0.000,0
1749426401.556,-42.969,-40.527,-22.949,-21.973,0.000,0
1749426401.560,-34.180,-41.992,-20.020,-8.789,0.000,0
1749426401.564,-35.156,-40.527,-15.625,-16.113,0.000,0
1749426401.568,-42.480,-38.086,-16.602,-30.762,0.000,0
1749426401.572,-48.828,-34.180,-17.090,-38.086,0.000,0
1749426401.576,-31.250,-33.203,-20.020,-41.992,0.000,0
1749426401.580,-24.902,-40.039,-18.066,-36.133,0.000,0
1749426401.584,-39.062,-41.016,-17.090,-35.645,0.000,0
1749426401.588,-44.434,-40.039,-15.625,-41.504,0.000,0
1749426401.592,-41.992,-34.668,-16.113,-37.109,0.000,0
1749426401.595,-33.203,-32.715,-20.020,-30.762,0.000,0
1749426401.599,-31.738,-31.250,-13.184,-22.949,0.000,0
1749426401.603,-30.762,-21.484,-17.578,-18.066,0.000,0
1749426401.607,-25.879,-27.832,-17.090,-21.484,0.000,0
1749426401.611,-18.066,-32.227,-12.207,-24.414,0.000,0
1749426401.615,-15.137,-26.367,-19.043,-15.137,0.000,0
1749426401.619,-16.113,-24.902,-20.508,-17.578,0.000,0
1749426401.623,-23.438,-31.250,-21.973,-28.320,0.000,0
1749426401.627,-24.414,-30.273,-25.879,-32.227,0.000,0
1749426401.631,-19.043,-27.832,-25.879,-21.973,0.000,0
1749426401.635,-26.855,-33.203,-26.367,-9.277,0.000,0
1749426401.638,-29.785,-37.598,-32.227,-24.414,0.000,0
1749426401.642,-19.043,-34.180,-33.203,-24.414,0.000,0
1749426401.646,-9.277,-32.227,-26.855,-3.418,0.000,0
1749426401.650,-12.695,-31.250,-25.391,-4.883,0.000,0
1749426401.654,-23.926,-32.715,-20.996,-16.113,0.000,0
1749426401.658,-31.738,-27.832,-21.973,-20.020,0.000,0
1749426401.662,-24.902,-26.367,-26.855,-12.207,0.000,0
1749426401.666,-26.855,-35.645,-26.855,-11.230,0.000,0
1749426401.670,-32.227,-37.109,-25.391,-14.648,0.000,0
1749426401.674,-38.086,-35.645,-26.855,-18.555,0.000,0
1749426401.678,-43.945,-34.668,-22.461,-12.695,0.000,0
1749426401.682,-40.039,-33.691,-21.484,-17.578,0.000,0
1749426401.685,-35.156,-32.715,-32.715,-24.902,0.000,0
1749426401.689,-29.785,-28.809,-31.738,-9.766,0.000,0
1749426401.693,-27.344,-28.809,-31.250,-9.766,0.000,0
1749426401.697,-28.809,-34.180,-26.367,-13.672,0.000,0
1749426401.701,-16.602,-30.762,-25.391,-15.625,0.000,0
1749426401.705,-20.996,-32.715,-32.227,-18.555,0.000,0
1749426401.709,-25.391,-35.156,-30.762,-25.879,0.000,0
1749426401.713,-16.113,-37.109,-32.227,-24.902,0.000,0
1749426401.717,-21.484,-35.645,-34.668,-22.461,0.000,0
1749426401.721,-29.785,-35.645,-26.367,-37.109,0.000,0
1749426401.725,-23.926,-37.598,-29.785,-43.945,0.000,0
1749426401.728,-22.949,-35.645,-31.250,-23.926,0.000,0
1749426401.732,-26.855,-41.016,-24.902,-21.484,0.000,0
1749426401.736,-27.344,-44.434,-29.297,-31.250,0.000,0
1749426401.740,-25.879,-43.945,-36.133,-37.598,0.000,0
1749426401.744,-19.531,-40.039,-34.668,-26.367,0.000,0
1749426401.748,-17.090,-37.109,-30.273,-20.508,0.000,0
1749426401.752,-8.789,-32.715,-32.227,-21.484,0.000,0
1749426401.756,-7.812,-31.738,-31.738,-25.879,0.000,0
1749426401.760,-6.836,-39.062,-30.762,-29.785,0.000,0
1749426401.764,1.953,-32.715,-29.297,-19.531,0.000,0
1749426401.767,-2.930,-29.297,-28.320,-19.043,0.000,0
1749426401.771,-9.277,-29.785,-27.344,-18.555,0.000,0
1749426401.775,-12.207,-30.762,-32.715,-13.184,0.000,0
1749426401.779,-12.695,-34.668,-40.039,-8.301,0.000,0
1749426401.783,-14.160,-33.691,-39.062,-18.066,0.000,0
1749426401.787,-15.625,-37.109,-34.668,-19.043,0.000,0
1749426401.791,-14.160,-41.016,-38.574,-23.438,0.000,0
1749426401.795,-12.695,-41.016,-36.133,-21.973,0.000,0
1749426401.799,-14.648,-34.668,-25.391,-16.602,0.000,0
1749426401.803,-15.625,-29.785,-24.414,-17.578,0.000,0
1749426401.807,-15.137,-36.133,-28.320,-21.484,0.000,0
1749426401.810,-7.324,-38.086,-34.180,-23.438,0.000,0
1749426401.814,-6.836,-31.250,-27.832,-10.254,0.000,0
1749426401.818,-16.113,-30.273,-28.809,-22.949,0.000,0
1749426401.822,-14.648,-33.203,-37.109,-24.902,0.000,0
1749426401.826,-14.648,-32.227,-36.621,-15.625,0.000,0
1749426401.830,-17.578,-33.691,-34.668,-18.555,0.000,0
1749426401.834,-22.461,-38.086,-35.156,-22.461,0.000,0
1749426401.838,-22.949,-37.109,-35.645,-27.832,0.000,0
1749426401.842,-26.855,-35.156,-34.668,-25.391,0.000,0
1749426401.846,-27.832,-34.180,-29.297,-22.461,0.000,0
1749426401.850,-28.809,-31.738,-23.438,-22.949,0.000,0
1749426401.853,-31.738,-34.668,-30.762,-26.855,0.000,0
1749426401.857,-32.715,-35.156,-40.039,-30.273,0.000,0
1749426401.861,-31.250,-34.180,-36.133,-33.691,0.000,0
1749426401.865,-25.879,-31.250,-23.926,-26.367,0.000,0
1749426401.869,-26.367,-31.738,-21.973,-12.207,0.000,0
1749426401.873,-28.320,-31.250,-24.902,-22.949,0.000,0
1749426401.877,-27.344,-28.320,-25.879,-21.484,0.000,0
1749426401.881,-22.949,-30.762,-27.344,0.488,0.000,0
1749426401.884,-28.809,-34.668,-27.832,-12.695,0.000,0
1749426401.889,-31.738,-35.156,-30.273,-26.855,0.000,0
1749426401.892,-19.043,-28.809,-31.738,-20.020,0.000,0
1749426401.896,-13.184,-32.715,-26.367,-13.184,0.000,0
1749426401.900,-15.137,-32.227,-27.344,-11.719,0.000,0
1749426401.904,-8.301,-29.297,-29.297,-11.230,0.000,0
1749426401.908,-0.977,-33.203,-28.809,-20.996,0.000,0
1749426401.912,-6.348,-30.762,-30.273,-19.043,0.000,0
1749426401.916,-21.484,-27.344,-27.832,-9.277,0.000,0
1749426401.920,-24.902,-24.902,-27.832,-15.137,0.000,0
1749426401.924,-23.926,-25.391,-31.250,-18.555,0.000,0
1749426401.927,-22.949,-24.414,-29.297,-19.043,0.000,0
1749426401.931,-17.578,-26.855,-29.785,-23.438,0.000,0
1749426401.936,-20.508,-32.227,-30.762,-26.855,0.000,0
1749426401.939,-22.949,-31.738,-32.715,-27.832,0.000,0
1749426401.943,-26.855,-27.832,-33.203,-31.250,0.000,0
1749426401.947,-31.738,-28.320,-31.738,-23.926,0.000,0
1749426401.951,-28.320,-25.879,-32.227,-25.391,0.000,0
1749426401.955,-22.461,-25.879,-31.250,-35.645,0.000,0
1749426401.959,-20.020,-23.438,-32.227,-36.621,0.000,0
1749426401.963,-20.020,-23.926,-31.250,-27.832,0.000,0
1749426401.967,-20.508,-27.832,-28.809,-30.273,0.000,0
1749426401.970,-15.625,-22.949,-33.691,-33.203,0.000,0
1749426401.974,-10.254,-20.508,-38.574,-28.809,0.000,0
1749426401.978,-11.230,-17.090,-33.203,-28.320,0.000,0
1749426401.982,-12.695,-20.508,-28.809,-28.809,0.000,0
1749426401.986,-13.184,-23.438,-34.668,-34.180,0.000,0
1749426401.990,-11.230,-19.531,-32.715,-31.738,0.000,0
1749426401.994,-13.672,-26.367,-30.762,-27.832,0.000,0
1749426401.998,-14.160,-29.785,-35.156,-29.297,0.000,0
1749426402.002,-11.719,-27.832,-32.715,-28.320,0.000,0
1749426402.006,-15.625,-27.832,-35.156,-30.762,0.000,0
1749426402.010,-12.207,-28.809,-35.645,-31.738,0.000,0
1749426402.014,-8.301,-23.926,-28.809,-25.391,0.000,0
1749426402.017,-6.836,-22.949,-26.367,-23.438,0.000,0
1749426402.021,-11.230,-25.391,-24.902,-29.297,0.000,0
1749426402.025,-16.602,-20.996,-21.484,-32.227,0.000,0
1749426402.029,-15.625,-23.438,-24.902,-25.391,0.000,0
1749426402.033,-19.531,-33.203,-27.344,-17.090,0.000,0
1749426402.037,-19.531,-32.227,-30.762,-25.391,0.000,0
1749426402.041,-21.973,-22.949,-34.668,-42.480,0.000,0
1749426402.045,-24.414,-22.949,-31.250,-41.992,0.000,0
1749426402.049,-24.902,-24.902,-31.250,-33.691,0.000,0
1749426402.053,-24.414,-22.949,-29.297,-38.086,0.000,0
1749426402.057,-33.691,-25.391,-30.762,-45.410,0.000,0
1749426402.060,-29.785,-25.391,-35.645,-40.527,0.000,0
1749426402.064,-20.996,-26.367,-35.645,-36.133,0.000,0
1749426402.068,-25.391,-24.902,-34.180,-36.621,0.000,0
1749426402.072,-25.391,-18.555,-38.086,-36.133,0.000,0
1749426402.076,-18.066,-21.973,-37.598,-34.180,0.000,0
1749426402.080,-16.113,-20.996,-35.156,-27.344,0.000,0
1749426402.084,-20.996,-21.973,-34.668,-32.227,0.000,0
1749426402.088,-20.020,-27.344,-34.668,-34.668,0.000,0
1749426402.092,-16.602,-25.391,-36.133,-26.855,0.000,0
1749426402.096,-17.578,-15.137,-35.156,-22.949,0.000,0
1749426402.100,-16.113,-14.648,-37.598,-26.855,0.000,0
1749426402.103,-10.254,-20.508,-39.551,-32.715,0.000,0
1749426402.107,-13.184,-20.508,-37.109,-32.715,0.000,0
1749426402.111,-13.184,-21.973,-31.738,-19.043,0.000,0
1749426402.115,-10.254,-24.902,-27.832,-10.254,0.000,0
1749426402.119,-15.137,-25.391,-28.809,-15.625,0.000,0
1749426402.123,-17.090,-29.785,-31.738,-25.391,0.000,0
1749426402.127,-11.719,-31.738,-36.621,-30.273,0.000,0
1749426402.131,-5.371,-24.902,-37.598,-21.973,0.000,0
1749426402.135,-7.324,-23.926,-35.156,-20.508,0.000,0
1749426402.139,-11.719,-21.973,-39.551,-25.391,0.000,0
1749426402.143,-14.648,-21.484,-37.598,-24.414,0.000,0
1749426402.146,-7.324,-25.879,-34.668,-32.715,0.000,0
1749426402.150,-8.301,-27.344,-30.273,-32.715,0.000,0
1749426402.154,-18.066,-27.832,-27.344,-30.762,0.000,0
1749426402.158,-21.973,-29.297,-30.273,-39.062,0.000,0
1749426402.162,-20.996,-31.250,-27.344,-34.180,0.000,0
1749426402.166,-25.391,-27.832,-25.879,-26.855,0.000,0
1749426402.170,-24.902,-27.344,-27.832,-31.738,0.000,0
1749426402.174,-18.555,-25.879,-28.809,-31.738,0.000,0
1749426402.178,-15.137,-18.555,-24.902,-22.461,0.000,0
1749426402.182,-10.742,-17.578,-26.855,-24.414,0.000,0
1749426402.186,-9.766,-21.484,-26.367,-35.645,0.000,0
1749426402.189,-12.207,-23.926,-30.762,-41.992,0.000,0
1749426402.193,-17.578,-20.996,-41.016,-39.062,0.000,0
1749426402.197,-15.625,-22.949,-35.156,-33.203,0.000,101
1749426402.201,-18.066,-22.461,-27.344,-30.762,0.000,0
1749426402.205,-27.344,-18.555,-20.508,-34.668,0.000,0
1749426402.209,-25.879,-20.996,-21.484,-29.297,0.000,0
1749426402.213,-17.578,-21.973,-29.297,-21.973,0.000,0
1749426402.217,-17.090,-25.391,-26.367,-21.484,0.000,0
1749426402.221,-14.648,-23.926,-25.391,-25.879,0.000,0
1749426402.225,-5.859,-21.973,-28.809,-27.344,0.000,0
1749426402.228,-0.488,-23.438,-30.273,-22.461,0.000,0
1749426402.232,-1.953,-20.996,-32.227,-17.578,0.000,0
1749426402.236,-5.371,-20.508,-27.344,-15.625,0.000,0
1749426402.240,1.465,-24.902,-23.926,-15.625,0.000,0
1749426402.244,4.883,-29.785,-28.809,-10.742,0.000,0
1749426402.248,5.371,-34.668,-23.438,2.441,0.000,0
1749426402.252,6.348,-30.273,-22.949,0.488,0.000,0
1749426402.256,2.441,-16.113,-34.180,-19.531,0.000,0
1749426402.260,0.000,-12.207,-34.180,-28.809,0.000,0
1749426402.264,-2.930,-19.043,-33.691,-29.785,0.000,0
1749426402.268,-2.930,-16.602,-36.133,-28.809,0.000,0
1749426402.271,-8.789,-10.254,-39.551,-32.715,0.000,0
1749426402.275,-20.020,-12.207,-43.945,-40.039,0.000,0
1749426402.279,-24.902,-12.207,-36.133,-37.109,0.000,0
1749426402.283,-23.438,-9.277,-34.180,-40.039,0.000,0
1749426402.287,-15.137,-12.695,-36.621,-42.969,0.000,0
1749426402.291,-9.766,-13.184,-33.203,-37.598,0.000,0
1749426402.295,-9.277,-9.766,-34.668,-32.715,0.000,0
1749426402.299,-7.812,-12.695,-31.250,-25.391,0.000,0
1749426402.302,-13.184,-16.602,-30.273,-28.320,0.000,0
1749426402.306,-14.648,-18.066,-37.109,-36.621,0.000,0
1749426402.311,-13.184,-21.973,-37.598,-28.320,0.000,0
1749426402.314,-17.090,-22.949,-34.668,-17.578,0.000,0
1749426402.318,-21.973,-19.043,-33.203,-22.461,0.000,0
1749426402.322,-25.391,-21.973,-33.691,-30.273,0.000,0
1749426402.326,-28.320,-21.484,-32.715,-31.250,0.000,0
1749426402.330,-30.273,-19.531,-28.809,-20.996,0.000,0
1749426402.334,-31.250,-23.926,-29.297,-20.020,0.000,0
1749426402.338,-31.250,-27.344,-29.785,-26.367,0.000,0
1749426402.342,-27.832,-29.785,-34.180,-35.156,0.000,0
1749426402.346,-26.367,-29.297,-33.691,-34.180,0.000,0
1749426402.349,-25.879,-24.902,-27.344,-22.461,0.000,0
1749426402.353,-36.133,-22.949,-33.691,-34.668,0.000,0
1749426402.357,-36.133,-24.902,-34.180,-36.621,0.000,0
1749426402.361,-30.762,-23.438,-27.344,-21.484,0.000,0
1749426402.365,-26.855,-21.484,-24.414,-14.160,0.000,0
1749426402.369,-22.461,-21.484,-29.297,-15.625,0.000,0
1749426402.373,-29.297,-23.438,-36.133,-23.926,0.000,0
1749426402.377,-30.762,-24.414,-35.156,-21.484,0.000,0
1749426402.381,-28.809,-25.879,-32.227,-20.020,0.000,0
1749426402.385,-28.809,-21.973,-26.855,-20.996,0.000,0
