timestamps,TP9,AF7,AF8,TP10,Right AUX,Marker0
1749428435.086,-65.430,-33.203,-90.332,-65.430,0.000,0
1749428435.090,-51.270,-37.109,-76.172,-52.734,0.000,0
1749428435.094,-43.457,-30.273,-75.195,-36.133,0.000,0
1749428435.098,-57.129,-33.203,-87.891,-44.434,0.000,0
1749428435.102,-61.035,-36.621,-87.891,-49.805,0.000,0
1749428435.106,-51.758,-39.062,-72.266,-44.922,0.000,0
1749428435.109,-44.434,-48.828,-71.777,-48.828,0.000,0
1749428435.113,-43.457,-46.387,-77.637,-45.898,0.000,0
1749428435.117,-43.945,-43.945,-66.406,-42.480,0.000,0
1749428435.121,-43.457,-43.945,-59.570,-32.227,0.000,0
1749428435.125,-64.453,-44.922,-85.938,-32.227,0.000,0
1749428435.129,-70.312,-41.992,-106.934,-46.875,0.000,0
1749428435.133,-59.082,-37.598,-99.609,-46.875,0.000,0
1749428435.137,-50.781,-37.598,-93.750,-44.922,0.000,0
1749428435.141,-52.246,-37.598,-92.285,-42.480,0.000,0
1749428435.145,-63.477,-38.574,-91.797,-52.246,0.000,0
1749428435.149,-58.105,-35.645,-72.754,-46.387,0.000,0
1749428435.153,-44.922,-36.621,-55.176,-31.738,0.000,0
1749428435.156,-61.523,-40.527,-75.684,-55.664,0.000,0
1749428435.160,-77.148,-42.480,-91.309,-77.637,0.000,0
1749428435.164,-56.641,-41.016,-74.219,-62.988,0.000,0
1749428435.168,-49.316,-30.762,-60.059,-51.270,0.000,0
1749428435.172,-77.148,-30.762,-68.848,-66.406,0.000,0
1749428435.176,-84.473,-36.133,-67.871,-72.754,0.000,0
1749428435.180,-62.500,-34.668,-58.594,-61.035,0.000,0
1749428435.184,-60.059,-35.156,-62.988,-54.688,0.000,0
1749428435.188,-64.453,-41.992,-65.918,-62.012,0.000,0
1749428435.192,-57.617,-58.594,-58.105,-68.359,0.000,0
1749428435.196,-74.219,-69.824,-54.199,-64.453,0.000,0
1749428435.199,-87.891,-56.152,-59.082,-64.941,0.000,0
1749428435.203,-81.055,-40.039,-56.641,-64.453,0.000,0
1749428435.207,-77.637,-36.621,-48.828,-60.547,0.000,0
1749428435.211,-76.172,-40.039,-56.641,-61.523,0.000,0
1749428435.215,-70.801,-43.945,-59.082,-61.035,0.000,0
1749428435.219,-54.199,-55.664,-52.246,-54.199,0.000,0
1749428435.223,-51.758,-53.711,-45.410,-43.945,0.000,0
1749428435.227,-69.824,-47.363,-41.504,-45.410,0.000,0
1749428435.231,-61.035,-44.434,-35.645,-46.875,0.000,0
1749428435.235,-54.688,-43.457,-33.203,-44.434,0.000,0
1749428435.239,-55.664,-50.293,-40.039,-44.922,0.000,0
1749428435.242,-41.016,-41.992,-32.715,-41.992,0.000,0
1749428435.246,-43.457,-40.527,-34.180,-43.945,0.000,0
1749428435.250,-58.105,-50.781,-45.898,-53.223,0.000,0
1749428435.254,-47.363,-42.480,-38.574,-52.734,0.000,0
1749428435.258,-44.434,-31.738,-29.297,-46.875,0.000,0
1749428435.262,-56.152,-35.645,-40.039,-51.270,0.000,0
1749428435.266,-54.688,-43.457,-40.039,-50.293,0.000,0
1749428435.269,-48.340,-42.969,-28.320,-52.246,0.000,0
1749428435.274,-50.293,-32.227,-23.926,-57.129,0.000,0
1749428435.278,-46.387,-31.738,-32.715,-58.594,0.000,0
1749428435.282,-54.688,-41.504,-41.992,-63.965,0.000,0
1749428435.285,-76.660,-44.434,-23.926,-57.129,0.000,0
1749428435.289,-69.824,-42.480,-16.602,-50.781,0.000,0
1749428435.293,-65.918,-33.203,-26.855,-56.641,0.000,0
1749428435.297,-66.406,-28.809,-23.926,-54.688,0.000,0
1749428435.301,-52.734,-35.156,-25.391,-48.340,0.000,0
1749428435.305,-31.738,-37.598,-30.273,-31.738,0.000,0
1749428435.309,-17.090,-36.621,-28.320,-14.160,0.000,0
1749428435.312,-25.391,-46.387,-22.949,-22.949,0.000,0
1749428435.316,-31.250,-56.152,-12.207,-23.926,0.000,0
1749428435.321,-19.043,-56.152,-2.441,-13.672,0.000,0
1749428435.325,-17.090,-54.199,0.977,-15.625,0.000,0
1749428435.328,-33.203,-56.641,1.953,-24.414,0.000,0
1749428435.332,-33.203,-49.316,8.789,-22.461,0.000,0
1749428435.336,-17.578,-40.527,19.043,-10.254,0.000,0
1749428435.340,-18.555,-39.551,16.602,-12.207,0.000,0
1749428435.344,-25.391,-38.574,6.348,-21.484,0.000,0
1749428435.348,-22.461,-35.645,8.301,-20.996,0.000,0
1749428435.352,-19.531,-41.504,8.301,-20.508,0.000,0
1749428435.355,-19.531,-48.828,4.883,-19.531,0.000,0
1749428435.359,-29.297,-41.016,8.301,-18.555,0.000,0
1749428435.363,-15.625,-31.250,8.789,-20.996,0.000,0
1749428435.367,-0.488,-21.973,9.766,-8.301,0.000,0
1749428435.371,-25.391,-17.578,8.789,-15.137,0.000,0
1749428435.375,-51.758,-33.691,2.441,-34.668,0.000,0
1749428435.379,-36.133,-46.387,4.395,-27.344,0.000,0
1749428435.383,-37.109,-41.504,5.859,-23.926,0.000,0
1749428435.387,-47.852,-37.109,5.859,-30.762,0.000,0
1749428435.391,-36.621,-36.621,-1.953,-39.062,0.000,0
1749428435.394,-30.762,-36.133,-10.742,-35.645,0.000,0
1749428435.398,-26.367,-34.668,-8.789,-26.367,0.000,0
1749428435.402,-30.762,-25.879,0.000,-29.785,0.000,0
1749428435.406,-41.016,-37.598,-5.859,-33.203,0.000,0
1749428435.410,-49.805,-46.875,-12.695,-39.062,0.000,0
1749428435.415,-41.992,-45.410,-4.883,-29.785,0.000,0
1749428435.418,-33.691,-43.457,-3.418,-23.438,0.000,0
1749428435.422,-37.598,-31.738,-12.695,-32.227,0.000,0
1749428435.426,-38.574,-28.809,0.977,-41.504,0.000,0
1749428435.430,-41.992,-24.414,33.691,-37.109,0.000,0
1749428435.434,-31.250,-19.043,47.363,-29.297,0.000,0
1749428435.438,-18.555,-16.602,63.477,-21.484,0.000,0
1749428435.441,-25.391,-27.832,65.918,-28.320,0.000,0
1749428435.445,-32.715,-45.410,51.758,-47.363,0.000,0
1749428435.449,-32.227,-42.969,57.129,-46.875,0.000,0
1749428435.453,-28.320,-36.621,72.266,-33.203,0.000,0
1749428435.457,-28.809,-39.062,79.590,-24.902,0.000,0
1749428435.462,-36.621,-40.039,68.359,-30.762,0.000,0
1749428435.465,-46.875,-35.645,60.547,-36.621,0.000,0
1749428435.469,-41.016,-27.344,67.383,-40.039,0.000,0
1749428435.473,-33.691,-20.020,62.012,-43.457,0.000,0
1749428435.477,-38.574,-20.020,53.223,-41.016,0.000,0
1749428435.481,-38.086,-37.109,48.340,-39.551,0.000,0
1749428435.485,-39.062,-45.898,46.387,-44.922,0.000,0
1749428435.488,-45.898,-48.340,44.434,-49.805,0.000,0
1749428435.492,-38.086,-46.875,43.457,-45.410,0.000,0
1749428435.496,-29.297,-39.062,45.898,-42.969,0.000,0
1749428435.500,-20.996,-28.320,57.129,-29.297,0.000,0
1749428435.504,-24.414,-20.508,55.176,-29.785,0.000,0
1749428435.509,-37.598,-27.344,40.527,-46.875,0.000,0
1749428435.512,-35.156,-35.156,29.297,-49.316,0.000,0
1749428435.516,-23.438,-36.621,18.066,-53.223,0.000,0
1749428435.520,-19.043,-37.109,32.715,-53.711,0.000,0
1749428435.524,-31.738,-42.480,49.805,-40.527,0.000,0
1749428435.528,-26.367,-32.715,65.918,-28.809,0.000,0
1749428435.532,-39.062,-29.785,99.121,-31.738,0.000,0
1749428435.535,-58.594,-27.832,123.535,-44.434,0.000,0
1749428435.539,-55.176,-26.367,125.977,-50.293,0.000,0
1749428435.543,-65.430,-40.039,117.676,-48.340,0.000,0
1749428435.547,-65.918,-44.922,113.281,-49.316,0.000,0
1749428435.551,-51.758,-41.992,111.328,-53.223,0.000,0
1749428435.555,-46.387,-29.785,108.887,-53.711,0.000,0
1749428435.559,-47.363,-24.902,101.562,-51.758,0.000,0
1749428435.563,-47.363,-25.879,88.867,-57.129,0.000,0
1749428435.567,-41.016,-32.227,84.473,-53.711,0.000,0
1749428435.571,-40.527,-34.668,83.496,-42.969,0.000,0
1749428435.575,-41.016,-19.043,83.496,-36.621,0.000,0
1749428435.579,-41.016,-22.461,77.637,-40.039,0.000,0
1749428435.582,-54.199,-36.133,65.430,-49.805,0.000,0
1749428435.586,-47.852,-39.551,55.176,-51.758,0.000,0
1749428435.590,-37.109,-42.480,45.410,-52.734,0.000,0
1749428435.594,-31.738,-36.133,52.246,-40.527,0.000,0
1749428435.598,-26.367,-25.391,58.594,-26.855,0.000,0
1749428435.602,-25.391,-28.809,50.781,-33.691,0.000,0
1749428435.606,-17.578,-26.855,52.734,-34.180,0.000,0
1749428435.610,-12.695,-18.555,56.152,-27.344,0.000,0
1749428435.614,-30.762,-30.273,35.156,-32.715,0.000,0
1749428435.618,-36.133,-30.273,23.438,-39.062,0.000,0
1749428435.622,-41.504,-26.855,24.902,-40.527,0.000,0
1749428435.625,-52.734,-34.180,24.414,-40.039,0.000,0
1749428435.629,-39.551,-38.086,30.273,-42.480,0.000,0
1749428435.633,-24.902,-26.367,38.086,-34.668,0.000,0
1749428435.637,-23.926,-11.230,43.945,-18.555,0.000,0
1749428435.641,-35.156,-23.438,24.414,-36.621,0.000,0
1749428435.645,-39.062,-37.598,4.883,-50.781,0.000,0
1749428435.649,-41.016,-35.645,13.672,-41.016,0.000,0
1749428435.653,-47.852,-27.832,19.043,-45.410,0.000,0
1749428435.657,-39.062,-37.109,13.184,-48.340,0.000,0
1749428435.661,-25.391,-47.363,7.324,-43.945,0.000,0
1749428435.665,-19.531,-36.133,9.277,-28.320,0.000,0
1749428435.668,-27.832,-16.602,14.648,-20.020,0.000,0
1749428435.672,-40.039,-15.625,7.324,-30.273,0.000,0
1749428435.676,-36.133,-22.461,1.953,-37.598,0.000,0
1749428435.680,-26.367,-24.414,2.441,-32.715,0.000,0
1749428435.684,-45.410,-27.832,4.883,-34.668,0.000,0
1749428435.688,-51.758,-39.551,10.742,-37.109,0.000,0
1749428435.691,-37.598,-37.109,11.719,-33.203,0.000,0
1749428435.696,-37.109,-26.367,9.277,-30.273,0.000,0
1749428435.700,-34.668,-24.902,9.277,-26.367,0.000,0
1749428435.704,-34.180,-18.555,9.277,-29.785,0.000,0
1749428435.707,-38.086,-27.832,2.441,-33.691,0.000,0
1749428435.711,-55.664,-44.434,-9.277,-42.969,0.000,0
1749428435.715,-58.594,-37.598,-9.277,-41.992,0.000,0
1749428435.719,-42.969,-31.250,-4.883,-34.180,0.000,0
1749428435.723,-36.133,-36.621,-8.301,-39.551,0.000,0
1749428435.727,-37.598,-40.039,-11.719,-41.992,0.000,0
1749428435.731,-33.203,-33.203,-6.836,-42.969,0.000,0
1749428435.734,-34.668,-25.879,-7.324,-45.898,0.000,0
1749428435.738,-29.785,-22.461,-10.254,-29.297,0.000,0
1749428435.743,-27.344,-24.414,-5.859,-24.902,0.000,0
1749428435.747,-37.109,-35.156,-4.883,-42.969,0.000,0
1749428435.750,-40.527,-33.203,-9.766,-45.410,0.000,0
1749428435.754,-46.875,-28.809,-14.648,-46.875,0.000,0
1749428435.758,-53.223,-25.879,-18.555,-50.781,0.000,0
1749428435.762,-44.922,-26.367,-14.648,-39.062,0.000,0
1749428435.766,-37.598,-23.926,-15.137,-32.227,0.000,0
1749428435.770,-30.762,-16.113,-17.578,-36.133,0.000,0
1749428435.773,-15.137,-13.184,-17.090,-28.320,0.000,0
1749428435.777,-15.625,-20.996,-20.508,-16.602,0.000,0
1749428435.781,-42.480,-35.156,-12.207,-24.902,0.000,0
1749428435.785,-55.176,-38.574,-4.883,-43.457,0.000,0
1749428435.790,-46.387,-42.480,-5.859,-36.621,0.000,0
1749428435.794,-47.363,-47.852,0.000,-29.785,0.000,0
1749428435.797,-42.969,-45.410,12.695,-21.484,0.000,0
1749428435.801,-38.086,-41.992,13.672,-27.344,0.000,0
1749428435.805,-44.434,-41.016,10.254,-40.527,0.000,0
1749428435.809,-43.457,-35.645,15.137,-25.879,0.000,0
1749428435.813,-17.090,-41.992,10.742,-20.996,0.000,0
1749428435.817,-8.301,-46.387,-3.906,-22.949,0.000,0
1749428435.821,-41.016,-44.922,-19.043,-38.574,0.000,0
1749428435.824,-44.434,-45.898,-18.066,-41.504,0.000,0
1749428435.828,-25.391,-37.109,-11.719,-27.832,0.000,0
1749428435.832,-38.574,-32.227,-11.230,-33.203,0.000,0
1749428435.837,-49.805,-35.645,-7.324,-27.832,0.000,0
1749428435.841,-31.738,-37.598,-12.207,-52.246,0.000,0
1749428435.844,-14.160,-25.391,-3.906,-88.867,0.000,0
1749428435.848,-20.508,-29.297,5.371,-88.379,0.000,0
1749428435.852,-19.043,-40.039,3.418,-88.379,0.000,0
1749428435.856,-17.578,-29.297,0.977,-92.285,0.000,0
1749428435.860,-31.738,-33.691,1.953,-88.379,0.000,0
1749428435.864,-26.855,-45.898,10.742,-76.660,0.000,0
1749428435.868,-20.508,-50.781,7.812,-82.031,0.000,0
1749428435.871,-22.949,-36.621,11.230,-79.590,0.000,0
1749428435.875,-26.855,-17.578,11.230,-74.219,0.000,0
1749428435.879,-33.691,-20.508,-5.371,-78.613,0.000,0
1749428435.884,-20.508,-21.973,5.859,-67.383,0.000,0
1749428435.888,-14.160,-20.996,18.066,-54.688,0.000,0
1749428435.891,-14.160,-25.391,8.301,-62.012,0.000,0
1749428435.895,-12.695,-32.715,2.930,-61.035,0.000,0
1749428435.899,-9.766,-35.645,3.906,-51.270,0.000,0
1749428435.903,-3.906,-25.879,13.184,-43.457,0.000,0
1749428435.907,-16.602,-20.020,15.137,-40.039,0.000,0
1749428435.911,-37.109,-24.414,3.906,-47.363,0.000,0
1749428435.915,-20.996,-22.949,10.254,-37.598,0.000,0
1749428435.918,-2.930,-25.391,10.742,-35.156,0.000,0
1749428435.922,-31.250,-31.250,-6.836,-50.293,0.000,0
1749428435.926,-24.414,-21.484,-1.465,-54.688,0.000,0
1749428435.931,-17.090,-20.996,6.836,-49.316,0.000,0
1749428435.934,-37.598,-35.156,0.977,-44.434,0.000,0
1749428435.938,-32.227,-35.645,-6.836,-45.410,0.000,0
1749428435.942,-24.414,-29.297,-5.371,-44.434,0.000,0
1749428435.946,-28.320,-29.297,0.488,-42.480,0.000,0
1749428435.950,-39.551,-31.250,-0.488,-44.434,0.000,0
1749428435.954,-38.086,-27.344,-7.812,-44.434,0.000,0
1749428435.958,-24.902,-20.020,-7.812,-42.969,0.000,0
1749428435.961,-11.719,-12.207,-2.930,-39.551,0.000,0
1749428435.965,-22.949,-20.020,-11.230,-43.457,0.000,0
1749428435.969,-28.809,-29.297,-17.090,-36.621,0.000,0
1749428435.973,-14.160,-31.738,-10.254,-34.668,0.000,0
1749428435.977,-23.438,-29.297,2.930,-41.016,0.000,0
1749428435.981,-32.227,-19.531,0.000,-36.133,0.000,0
1749428435.985,-23.438,-13.672,-5.371,-41.992,0.000,0
1749428435.989,-8.789,-12.695,-0.488,-39.551,0.000,0
1749428435.993,-26.367,-21.484,5.859,-30.762,0.000,0
1749428435.997,-45.898,-28.809,58.105,-38.574,0.000,0
1749428436.001,-44.434,-21.973,102.051,-41.992,0.000,0
1749428436.004,-35.645,-26.855,110.352,-33.203,0.000,0
1749428436.008,-36.621,-35.156,116.211,-31.250,0.000,0
1749428436.012,-28.320,-33.203,120.117,-31.738,0.000,0
1749428436.016,-20.996,-30.273,117.676,-22.461,0.000,0
1749428436.020,-21.484,-15.137,113.770,-19.531,0.000,0
1749428436.024,-21.484,-10.742,107.422,-28.809,0.000,0
1749428436.028,-26.367,-20.020,88.379,-35.645,0.000,0
1749428436.032,-13.184,-15.625,83.496,-25.391,0.000,0
1749428436.036,-7.324,-10.254,93.750,-13.184,0.000,0
1749428436.040,-21.484,-24.902,80.566,-29.297,0.000,0
1749428436.044,-24.414,-28.809,63.477,-32.227,0.000,0
1749428436.047,-12.695,-23.926,64.453,-18.555,0.000,0
1749428436.051,-7.324,-26.855,66.406,-11.230,0.000,0
1749428436.055,-14.160,-20.996,63.965,-14.160,0.000,0
1749428436.059,-13.672,-8.301,61.035,-23.438,0.000,0
1749428436.063,-6.348,-0.977,64.941,-7.812,0.000,0
1749428436.067,-12.207,-11.230,58.105,-3.418,0.000,0
1749428436.071,-20.508,-27.344,41.504,-19.531,0.000,0
1749428436.075,-13.672,-20.508,38.086,-16.113,0.000,0
1749428436.079,-21.484,-16.113,37.598,-13.672,0.000,0
1749428436.083,-16.602,-19.043,39.062,-11.230,0.000,0
1749428436.087,-8.789,-18.555,37.109,-9.766,0.000,0
1749428436.090,-5.859,-10.742,43.945,-8.301,0.000,0
1749428436.094,-4.883,-20.020,54.688,-5.371,0.000,0
1749428436.098,-18.066,-35.156,52.246,-4.395,0.000,0
1749428436.102,-22.461,-41.992,39.551,-13.672,0.000,0
1749428436.106,-18.555,-39.062,28.809,-26.367,0.000,0
1749428436.110,-17.090,-20.020,37.109,-16.113,0.000,0
1749428436.114,-8.301,-5.859,41.992,-11.230,0.000,0
1749428436.118,9.277,-7.812,50.781,-2.441,0.000,0
1749428436.122,-6.348,-19.531,55.664,-10.742,0.000,0
1749428436.126,-31.250,-31.250,37.598,-33.691,0.000,0
1749428436.129,-29.297,-32.715,34.180,-27.344,0.000,0
1749428436.133,-8.789,-30.762,39.551,-13.184,0.000,0
1749428436.137,5.371,-31.738,33.691,-9.277,0.000,0
1749428436.141,18.066,-18.066,36.621,-5.859,0.000,0
1749428436.145,16.113,-13.184,38.086,-4.883,0.000,0
1749428436.149,-2.441,-30.762,25.879,-13.672,0.000,0
1749428436.153,-3.418,-28.809,24.902,-18.555,0.000,0
1749428436.156,-7.812,-23.926,19.043,-20.508,0.000,0
1749428436.160,-5.859,-23.926,13.184,-18.555,0.000,0
1749428436.165,4.883,-20.508,15.137,-17.578,0.000,0
1749428436.169,15.137,-20.508,19.531,-14.160,0.000,0
1749428436.173,28.320,-11.719,34.180,5.371,0.000,0
1749428436.176,22.949,-16.602,29.297,3.418,0.000,0
1749428436.180,-7.812,-27.832,2.441,-19.043,0.000,0
1749428436.184,-22.949,-20.508,-1.953,-24.414,0.000,0
1749428436.188,-26.367,-15.625,7.812,-21.484,0.000,0
1749428436.192,-35.156,-26.855,5.371,-20.508,0.000,0
1749428436.196,-28.320,-34.668,3.418,-22.949,0.000,0
1749428436.200,-16.113,-32.227,11.719,-11.230,0.000,0
1749428436.203,-6.348,-20.020,18.066,12.207,0.000,0
1749428436.207,3.418,-12.207,16.113,6.836,0.000,0
1749428436.212,-4.883,-27.832,0.000,-19.531,0.000,0
1749428436.216,2.441,-23.926,1.465,-6.836,0.000,0
1749428436.220,6.348,-11.719,4.395,2.441,0.000,0
1749428436.223,-11.719,-5.859,7.324,-6.348,0.000,0
1749428436.227,-19.531,-10.742,9.277,-1.953,0.000,0
1749428436.231,-21.973,-27.344,-9.277,-1.953,0.000,0
1749428436.235,-25.879,-32.227,-20.996,-2.930,0.000,0
1749428436.239,-21.484,-32.227,-17.090,-6.836,0.000,0
1749428436.243,-14.648,-31.250,-12.207,-13.672,0.000,0
1749428436.247,-7.324,-22.949,-6.836,-1.953,0.000,0
1749428436.250,0.000,-16.602,-4.883,9.277,0.000,0
1749428436.254,4.395,-11.230,0.488,20.020,0.000,0
1749428436.259,-7.324,-16.602,-9.277,12.695,0.000,0
1749428436.263,-19.043,-23.926,-18.066,-12.695,0.000,0
1749428436.267,-13.184,-20.020,-8.789,-16.602,0.000,0
1749428436.270,-6.836,-22.461,-12.695,-8.301,0.000,0
1749428436.274,10.742,-18.066,-0.977,5.371,0.000,0
1749428436.278,18.555,-11.230,20.020,20.020,0.000,0
1749428436.282,-10.742,-22.949,0.977,3.906,0.000,0
1749428436.286,-19.531,-27.832,-14.160,-19.531,0.000,0
1749428436.290,-5.859,-20.020,-7.812,-17.090,0.000,0
1749428436.294,-14.648,-28.320,-9.277,-15.625,0.000,0
1749428436.297,-20.508,-40.527,-16.602,-10.254,0.000,0
1749428436.301,-3.418,-21.973,-11.230,3.418,0.000,0
1749428436.306,15.137,4.395,5.371,9.766,0.000,0
1749428436.310,-17.578,-12.695,-20.508,-32.715,0.000,0
1749428436.314,-34.180,-24.414,-35.645,-50.781,0.000,0
1749428436.317,-25.879,-13.672,-26.367,-31.250,0.000,0
1749428436.321,-23.438,-9.277,-22.949,-22.949,0.000,0
1749428436.325,-14.160,-3.906,-20.996,-20.508,0.000,0
1749428436.329,-4.395,-1.465,-18.555,-10.254,0.000,0
1749428436.333,-3.418,-3.418,-19.531,-4.883,0.000,0
1749428436.337,-9.277,-3.418,-23.926,17.090,0.000,0
1749428436.341,-7.812,5.859,-19.531,64.453,0.000,0
1749428436.344,-6.836,5.859,-17.578,69.336,0.000,0
1749428436.348,-10.254,-17.090,-30.273,56.641,0.000,0
1749428436.353,-3.418,-16.602,-21.484,74.219,0.000,0
1749428436.357,10.742,1.953,1.465,94.238,0.000,0
1749428436.360,0.488,-5.859,-4.883,74.707,0.000,0
1749428436.364,-19.043,-19.043,-25.391,48.340,0.000,0
1749428436.368,-6.348,-12.695,-20.996,45.898,0.000,0
1749428436.372,-2.930,-6.836,-15.625,45.410,0.000,0
1749428436.376,-4.883,-12.695,-14.160,52.246,0.000,0
1749428436.380,3.418,-14.648,-13.184,56.641,0.000,0
1749428436.384,19.043,-12.207,-18.066,43.457,0.000,0
1749428436.387,24.902,-7.812,-8.301,49.805,0.000,0
1749428436.391,13.672,2.930,8.789,64.941,0.000,0
1749428436.395,-1.953,-11.719,-10.254,52.246,0.000,0
1749428436.400,-23.438,-21.973,-24.902,33.203,0.000,0
1749428436.403,-22.949,-19.043,-19.043,25.879,0.000,0
1749428436.407,-7.812,-16.113,-11.719,30.762,0.000,0
1749428436.411,-1.465,-10.742,-6.836,30.273,0.000,0
1749428436.415,7.324,-13.672,-2.441,33.203,0.000,0
1749428436.419,20.996,-11.719,1.465,44.434,0.000,0
1749428436.423,23.438,-8.789,5.371,42.969,0.000,0
1749428436.427,9.766,-8.301,1.465,29.297,0.000,0
1749428436.430,0.000,-13.184,-14.160,23.438,0.000,0
1749428436.434,15.137,-11.719,-9.277,36.133,0.000,0
1749428436.438,22.949,0.000,1.465,43.457,0.000,0
1749428436.442,-2.441,-11.719,-8.301,25.879,0.000,0
1749428436.446,-16.113,-21.973,-20.996,5.371,0.000,0
1749428436.450,-7.324,-13.184,-15.137,7.812,0.000,0
1749428436.454,-1.465,3.906,-0.488,20.996,0.000,0
1749428436.458,-16.602,-9.766,-13.672,10.254,0.000,0
1749428436.462,-35.645,-27.344,-24.902,-4.395,0.000,0
1749428436.466,-29.297,-21.973,-21.484,-4.883,0.000,0
1749428436.469,-9.277,-10.254,-9.766,10.254,0.000,0
1749428436.473,8.789,-10.254,8.301,30.273,0.000,0
1749428436.477,-8.301,-27.344,0.977,13.672,0.000,0
1749428436.481,-33.691,-29.785,-15.625,-9.277,0.000,0
1749428436.485,-37.598,-30.273,-17.578,-13.672,0.000,0
1749428436.489,-26.367,-24.902,-12.695,-11.719,0.000,0
1749428436.493,-4.883,-19.043,-2.930,4.883,0.000,0
1749428436.497,-13.672,-27.344,-2.930,8.789,0.000,0
1749428436.501,-28.320,-22.949,-2.930,-2.441,0.000,0
1749428436.505,-21.484,-12.207,12.207,10.742,0.000,0
1749428436.509,-5.371,-4.883,19.531,15.625,0.000,0
1749428436.512,-12.207,-9.277,9.277,0.000,0.000,0
1749428436.516,-30.273,-23.926,-2.441,-11.719,0.000,0
1749428436.520,-26.367,-24.902,-7.324,-19.531,0.000,0
1749428436.524,-16.113,-16.113,-5.371,-16.602,0.000,0
1749428436.528,-6.836,-20.996,-2.441,-9.766,0.000,0
1749428436.532,0.000,-19.043,3.418,-1.465,0.000,0
1749428436.536,17.090,-3.906,19.043,8.301,0.000,0
1749428436.540,37.598,-4.883,10.742,4.395,0.000,0
1749428436.544,4.395,-26.855,-12.695,-7.812,0.000,0
1749428436.548,-29.785,-32.715,-6.836,-12.207,0.000,0
1749428436.552,-31.738,-22.949,5.859,-9.766,0.000,0
1749428436.556,-20.020,-28.809,7.812,0.000,0.000,0
1749428436.559,-8.789,-36.133,18.066,14.160,0.000,0
1749428436.563,-6.348,-36.621,27.344,17.090,0.000,0
1749428436.567,5.859,-33.203,32.227,7.324,0.000,0
1749428436.571,12.207,-30.762,34.180,3.906,0.000,0
1749428436.575,-2.441,-31.738,22.461,-1.953,0.000,0
1749428436.579,-18.555,-31.250,20.996,-3.906,0.000,0
1749428436.583,-14.160,-27.832,28.320,3.418,0.000,0
1749428436.587,-13.672,-36.621,22.949,7.324,0.000,0
1749428436.591,-22.461,-48.340,18.066,0.488,0.000,0
1749428436.595,-27.344,-43.457,15.625,-3.906,0.000,0
1749428436.599,-19.043,-46.875,8.789,-0.977,0.000,0
1749428436.603,0.977,-48.828,19.531,12.207,0.000,0
1749428436.606,-6.836,-37.109,14.648,6.836,0.000,0
1749428436.610,-32.227,-37.109,-2.930,-8.301,0.000,0
1749428436.614,-15.625,-36.621,10.254,7.812,0.000,0
1749428436.618,-1.953,-29.297,15.137,13.672,0.000,0
1749428436.622,-20.508,-21.973,-0.488,0.000,0.000,0
1749428436.626,-42.969,-28.320,-10.742,-13.184,0.000,0
1749428436.630,-23.438,-18.555,-3.906,-7.324,0.000,0
1749428436.634,6.836,-10.742,11.230,12.695,0.000,0
1749428436.638,2.441,-27.832,9.277,11.230,0.000,0
1749428436.642,-19.531,-32.715,-1.465,-6.836,0.000,0
1749428436.646,-15.625,-27.832,2.441,-14.648,0.000,0
1749428436.650,-3.906,-24.902,17.578,-8.301,0.000,0
1749428436.653,-16.113,-22.461,12.207,-2.441,0.000,0
1749428436.657,-30.762,-25.391,3.418,-7.324,0.000,0
1749428436.661,-21.484,-24.414,1.465,-5.371,0.000,0
1749428436.665,8.789,-3.906,8.789,6.348,0.000,0
1749428436.669,9.766,5.859,15.625,2.930,0.000,0
1749428436.673,-15.625,-4.883,6.348,-6.836,0.000,0
1749428436.677,-25.391,-20.508,-1.953,-14.648,0.000,0
1749428436.681,-16.113,-22.461,-0.977,-11.230,0.000,0
1749428436.685,-7.812,-17.090,1.465,1.953,0.000,0
1749428436.689,9.277,-13.184,4.883,6.348,0.000,0
1749428436.693,18.066,-9.277,13.184,10.742,0.000,0
1749428436.696,-12.207,-14.160,9.277,5.859,0.000,0
1749428436.700,-30.762,-23.926,-8.789,-11.230,0.000,0
1749428436.704,-23.438,-29.785,-4.395,-20.020,0.000,0
1749428436.708,-25.879,-34.668,0.488,-24.902,0.000,0
1749428436.712,-26.367,-21.484,-4.883,-20.020,0.000,0
1749428436.716,-12.695,-2.441,1.465,-3.906,0.000,0
1749428436.720,-6.836,-3.418,10.254,-16.602,0.000,0
1749428436.723,-7.812,-10.254,5.371,78.613,0.000,0
1749428436.728,-8.789,-8.301,6.836,207.520,0.000,0
1749428436.732,-4.395,-19.043,10.742,201.660,0.000,0
1749428436.736,-4.395,-23.926,9.277,193.359,0.000,0
1749428436.739,-2.441,-15.625,7.324,187.012,0.000,0
1749428436.743,-4.883,-28.809,1.953,168.457,0.000,0
1749428436.747,-26.367,-40.527,-0.488,147.461,0.000,0
1749428436.751,-17.090,-21.484,5.371,144.531,0.000,0
1749428436.755,-2.930,-7.812,13.672,134.766,0.000,0
1749428436.759,-25.391,-13.184,10.742,100.098,0.000,0
1749428436.763,-36.133,-19.043,9.766,84.473,0.000,0
1749428436.766,-22.461,-21.484,25.879,85.938,0.000,0
1749428436.770,-9.766,-19.043,41.504,81.055,0.000,0
1749428436.775,-0.488,-13.184,48.340,81.543,0.000,0
1749428436.779,-9.277,-23.438,41.016,80.566,0.000,0
1749428436.782,-20.020,-29.785,37.598,69.336,0.000,0
1749428436.786,-12.695,-20.508,46.387,62.988,0.000,0
1749428436.790,-16.113,-18.555,41.504,57.617,0.000,0
1749428436.794,-22.461,-24.414,32.227,36.621,0.000,0
1749428436.798,-6.836,-27.832,36.133,26.367,0.000,0
1749428436.802,7.812,-28.320,45.898,35.156,0.000,0
1749428436.806,-9.766,-32.227,38.086,30.273,0.000,0
1749428436.809,-20.996,-33.691,34.668,26.855,0.000,0
1749428436.813,-7.324,-28.320,47.852,35.156,0.000,0
1749428436.817,-0.488,-20.996,44.922,33.691,0.000,0
1749428436.821,-11.230,-22.461,27.832,27.344,0.000,0
1749428436.825,-16.602,-27.832,19.531,13.184,0.000,0
1749428436.829,-8.301,-20.996,27.832,4.883,0.000,0
1749428436.833,-11.230,-16.113,37.109,10.742,0.000,0
1749428436.837,-13.672,-21.973,30.762,3.906,0.000,0
1749428436.841,-4.395,-17.090,30.273,3.906,0.000,0
1749428436.845,8.789,-9.766,32.715,10.254,0.000,0
1749428436.849,12.207,-31.250,19.043,0.000,0.000,0
1749428436.852,3.906,-63.965,7.324,-8.789,0.000,0
1749428436.856,-22.461,-45.410,5.371,-14.160,0.000,0
1749428436.860,-36.133,-14.160,9.277,-18.555,0.000,0
1749428436.864,-24.902,-11.230,20.508,-21.973,0.000,0
1749428436.868,-25.391,-19.531,27.344,-27.832,0.000,0
1749428436.872,-10.742,-21.484,35.156,-14.160,0.000,0
1749428436.876,-5.371,-20.996,24.902,-12.207,0.000,0
1749428436.880,-27.344,-33.691,1.465,-38.574,0.000,0
1749428436.884,-27.344,-33.691,7.812,-45.898,0.000,0
1749428436.888,-17.090,-18.555,20.996,-19.043,0.000,0
1749428436.891,-20.020,-30.762,6.348,-18.066,0.000,0
1749428436.895,-23.926,-35.156,-2.441,-33.203,0.000,0
1749428436.899,-13.672,-38.574,0.000,-27.832,0.000,0
1749428436.903,-10.742,-42.969,6.348,-21.484,0.000,0
1749428436.907,-19.043,-21.973,8.789,-18.555,0.000,0
1749428436.911,-29.785,-26.367,-5.859,-34.180,0.000,0
1749428436.915,-40.527,-27.344,-3.906,-40.527,0.000,0
1749428436.919,-31.250,-29.785,1.465,-27.832,0.000,0
1749428436.923,-23.438,-40.527,-7.812,-32.715,0.000,0
1749428436.927,-30.762,-34.180,-13.672,-39.062,0.000,0
1749428436.931,-23.438,-29.785,-6.348,-26.367,0.000,0
1749428436.935,-6.348,-26.855,0.000,-13.184,0.000,0
1749428436.938,-9.766,-29.297,-2.930,-17.090,0.000,0
1749428436.942,-25.879,-35.156,-4.395,-24.414,0.000,0
1749428436.946,-35.156,-28.320,-11.230,-34.668,0.000,0
1749428436.950,-44.922,-31.738,-19.531,-34.668,0.000,0
1749428436.954,-41.992,-38.086,-16.113,-30.762,0.000,0
1749428436.958,-22.461,-41.992,-11.719,-34.180,0.000,0
1749428436.962,-25.879,-39.551,-18.555,-41.016,0.000,0
1749428436.966,-21.484,-14.648,-19.043,-32.227,0.000,0
1749428436.970,-14.160,-5.371,-9.766,-15.625,0.000,0
1749428436.974,-26.367,-36.133,-17.090,-27.344,0.000,0
1749428436.978,-39.062,-49.805,-28.320,-37.598,0.000,0
1749428436.982,-47.363,-36.133,-34.180,-36.133,0.000,0
1749428436.985,-32.227,-24.902,-27.832,-30.762,0.000,0
1749428436.989,-28.320,-29.297,-22.461,-24.414,0.000,0
1749428436.993,-34.180,-37.109,-21.484,-24.414,0.000,0
1749428436.997,-21.484,-25.879,-19.043,-24.902,0.000,0
1749428437.001,-7.812,-24.902,-17.578,-14.648,0.000,0
1749428437.005,-6.836,-31.250,-16.113,-12.695,0.000,0
1749428437.009,-30.273,-40.527,-24.902,-40.527,0.000,0
1749428437.013,-39.551,-38.574,-20.020,-44.922,0.000,0
1749428437.017,-38.574,-39.062,0.488,-24.414,0.000,0
1749428437.021,-52.246,-53.711,-9.277,-34.180,0.000,0
1749428437.025,-62.500,-54.688,-22.949,-52.734,0.000,0
1749428437.029,-58.594,-55.176,-10.254,-41.504,0.000,0
1749428437.032,-52.734,-52.734,0.977,-31.738,0.000,0
1749428437.036,-48.340,-40.039,0.977,-39.551,0.000,0
1749428437.040,-54.688,-41.992,-11.719,-43.457,0.000,0
1749428437.044,-48.828,-52.734,-19.531,-39.062,0.000,0
1749428437.048,-34.668,-42.969,-5.859,-28.809,0.000,0
1749428437.052,-42.969,-43.457,1.465,-31.250,0.000,0
1749428437.056,-48.828,-52.246,-3.418,-44.922,0.000,0
1749428437.060,-37.109,-60.059,-12.695,-53.223,0.000,0
1749428437.064,-42.969,-58.105,-14.160,-48.828,0.000,0
1749428437.068,-44.922,-38.574,0.977,-30.762,0.000,0
1749428437.072,-35.645,-31.250,10.254,-20.020,0.000,0
1749428437.075,-41.992,-40.527,6.348,-39.551,0.000,0
1749428437.079,-46.875,-50.781,11.719,-64.941,0.000,0
1749428437.083,-31.250,-49.805,23.438,-52.246,0.000,0
1749428437.087,-14.648,-47.363,34.668,-26.367,0.000,0
1749428437.091,-10.742,-57.129,77.148,-25.879,0.000,0
1749428437.095,-21.973,-55.176,109.375,-30.273,0.000,0
1749428437.099,-37.598,-44.434,103.516,-38.086,0.000,0
1749428437.103,-26.855,-38.574,104.980,-44.434,0.000,0
1749428437.107,-13.184,-40.039,108.887,-27.832,0.000,0
1749428437.111,-11.230,-41.016,114.258,-18.066,0.000,0
1749428437.115,-14.648,-40.039,118.164,-35.645,0.000,0
1749428437.118,-9.277,-36.621,115.234,-39.551,0.000,0
1749428437.122,-3.418,-35.156,114.258,-33.691,0.000,0
1749428437.126,-2.930,-41.504,114.258,-37.109,0.000,0
1749428437.130,-12.695,-50.293,109.375,-36.621,0.000,0
1749428437.134,-10.742,-46.387,115.234,-26.367,0.000,0
1749428437.138,-2.930,-38.086,110.840,-20.020,0.000,0
1749428437.142,-12.207,-33.203,104.004,-27.832,0.000,0
1749428437.146,-11.719,-26.855,109.375,-36.133,0.000,0
1749428437.150,-9.766,-32.715,101.074,-39.062,0.000,0
1749428437.154,-38.086,-44.922,84.961,-49.805,0.000,0
1749428437.158,-52.734,-43.457,84.473,-63.477,0.000,0
1749428437.161,-45.410,-41.504,83.984,-60.547,0.000,0
1749428437.165,-31.250,-43.945,87.402,-39.062,0.000,0
1749428437.169,-34.668,-41.016,85.449,-36.621,0.000,0
1749428437.173,-59.570,-40.039,73.730,-57.129,0.000,0
1749428437.177,-61.523,-35.156,68.848,-68.359,0.000,0
1749428437.181,-40.527,-26.855,72.754,-50.781,0.000,0
1749428437.185,-36.621,-27.344,74.707,-41.992,0.000,0
1749428437.188,-35.156,-33.203,65.430,-50.293,0.000,0
1749428437.192,-19.531,-31.738,68.848,-47.363,0.000,0
1749428437.197,-24.414,-26.855,72.266,-46.387,0.000,0
1749428437.201,-36.621,-29.785,52.734,-41.504,0.000,0
1749428437.204,-35.156,-36.133,47.363,-43.457,0.000,0
1749428437.208,-32.715,-40.039,50.781,-45.410,0.000,0
1749428437.212,-34.180,-48.828,39.551,-43.457,0.000,0
1749428437.216,-32.227,-52.734,39.551,-45.410,0.000,0
1749428437.220,-27.344,-45.410,37.598,-43.945,0.000,0
1749428437.224,-26.367,-47.363,43.457,-39.551,0.000,0
1749428437.228,-25.879,-49.316,43.945,-41.504,0.000,0
1749428437.231,-19.043,-33.203,37.598,-47.852,0.000,0
1749428437.235,-14.160,-20.508,76.172,-35.645,0.000,0
1749428437.239,-29.297,-40.039,105.957,-44.922,0.000,0
1749428437.243,-46.387,-54.688,101.074,-63.965,0.000,0
1749428437.247,-43.457,-46.875,100.098,-60.547,0.000,0
1749428437.251,-33.203,-46.387,114.258,-50.293,0.000,0
1749428437.255,-32.227,-43.945,126.465,-37.598,0.000,0
1749428437.259,-24.902,-30.762,122.559,-36.133,0.000,0
1749428437.263,-34.668,-32.715,125.488,-54.199,0.000,0
1749428437.267,-49.316,-28.320,162.598,-67.871,0.000,0
1749428437.270,-39.062,-22.461,183.105,-58.594,0.000,0
1749428437.274,-23.438,-30.762,188.477,-44.434,0.000,0
1749428437.278,-28.320,-43.945,180.176,-48.340,0.000,0
1749428437.282,-41.992,-47.363,162.109,-59.570,0.000,0
1749428437.286,-37.598,-43.457,157.715,-60.059,0.000,0
1749428437.290,-27.832,-41.504,145.508,-57.617,0.000,0
1749428437.294,-22.949,-42.969,138.184,-50.293,0.000,0
1749428437.298,-25.879,-43.457,136.719,-45.898,0.000,0
1749428437.302,-28.320,-38.086,127.441,-43.457,0.000,0
1749428437.306,-19.043,-40.039,127.441,-38.086,0.000,0
1749428437.310,-30.273,-40.527,120.605,-46.875,0.000,0
1749428437.314,-50.781,-44.922,104.492,-60.059,0.000,0
1749428437.318,-60.547,-56.641,94.727,-66.406,0.000,0
1749428437.321,-62.012,-54.199,99.121,-53.711,0.000,0
1749428437.325,-49.805,-50.781,87.402,-51.270,0.000,0
1749428437.329,-48.340,-62.500,65.918,-71.777,0.000,0
1749428437.333,-48.828,-50.781,68.848,-77.148,0.000,0
1749428437.337,-55.176,-33.203,74.707,-61.523,0.000,0
1749428437.341,-44.922,-39.551,64.941,-66.406,0.000,0
1749428437.345,-28.320,-42.480,66.895,-62.500,0.000,0
1749428437.349,-20.996,-32.715,73.730,-48.828,0.000,0
1749428437.353,-24.414,-29.297,65.430,-59.082,0.000,0
1749428437.357,-52.734,-34.668,52.734,-69.336,0.000,0
1749428437.361,-70.801,-41.504,46.387,-72.754,0.000,0
1749428437.365,-71.777,-43.457,48.340,-77.637,0.000,0
1749428437.368,-48.340,-28.320,61.523,-68.359,0.000,0
1749428437.372,-24.414,-25.879,68.848,-54.688,0.000,0
1749428437.376,-38.574,-57.129,51.270,-69.336,0.000,0
1749428437.380,-66.895,-63.477,26.367,-91.797,0.000,0
1749428437.384,-78.613,-45.410,29.785,-90.820,0.000,0
1749428437.388,-69.824,-43.457,36.133,-82.031,0.000,0
1749428437.392,-60.059,-39.062,29.297,-89.844,0.000,0
1749428437.396,-64.453,-25.879,30.762,-93.262,0.000,0
1749428437.400,-70.312,-22.461,38.086,-77.637,0.000,0
1749428437.404,-62.988,-28.809,50.781,-70.801,0.000,0
1749428437.408,-60.547,-34.668,55.664,-91.309,0.000,0
1749428437.411,-67.871,-30.273,52.734,-106.934,0.000,0
1749428437.415,-76.172,-11.719,53.223,-118.652,0.000,0
1749428437.419,-83.496,6.348,66.406,-122.070,0.000,0
1749428437.423,-100.586,-1.465,82.520,-120.117,0.000,0
1749428437.427,-109.375,-5.859,95.703,-123.535,0.000,0
1749428437.431,-115.234,0.488,98.633,-127.930,0.000,0
1749428437.435,-134.277,-7.812,95.703,-142.090,0.000,0
1749428437.439,-146.484,-6.348,106.934,-158.203,0.000,0
1749428437.443,-164.062,-11.719,128.418,-166.992,0.000,0
1749428437.447,-166.016,-18.555,143.066,-169.434,0.000,0
1749428437.451,-177.734,-28.320,153.809,-180.176,0.000,0
1749428437.454,-206.543,-32.227,161.133,-185.059,0.000,0
1749428437.458,-223.145,-39.551,164.062,-204.102,0.000,0
1749428437.462,-198.730,-41.016,164.551,-202.148,0.000,0
1749428437.466,-184.082,-41.992,168.457,-188.477,0.000,0
1749428437.470,-226.074,-54.688,164.551,-192.871,0.000,0
1749428437.474,-239.258,-70.801,162.109,-183.594,0.000,0
1749428437.478,-217.285,-80.566,165.039,-165.039,0.000,0
1749428437.482,-187.012,-79.590,159.180,-159.180,0.000,0
1749428437.486,-168.457,-80.566,165.039,-150.879,0.000,0
1749428437.490,-162.109,-71.777,180.176,-165.527,0.000,0
1749428437.494,-138.672,-71.777,176.270,-209.473,0.000,0
1749428437.497,-112.793,-90.332,170.410,-208.008,0.000,0
1749428437.501,-101.074,-83.496,170.410,-194.336,0.000,0
1749428437.505,-94.238,-69.824,157.715,-198.730,0.000,0
1749428437.509,-91.797,-60.059,145.996,-204.102,0.000,0
1749428437.513,-82.520,-66.895,151.855,-187.988,0.000,0
1749428437.517,-68.848,-61.523,163.086,-163.574,0.000,0
1749428437.521,-53.711,-53.711,192.383,-151.855,0.000,0
1749428437.525,-26.855,-58.594,238.281,-142.090,0.000,0
1749428437.529,-15.137,-56.641,244.141,-135.254,0.000,0
1749428437.533,-3.418,-54.688,236.816,-128.906,0.000,0
1749428437.537,5.371,-61.523,230.469,-108.398,0.000,0
1749428437.540,0.000,-45.410,211.914,-84.961,0.000,0
1749428437.544,19.531,-36.621,199.707,-71.289,0.000,0
1749428437.548,18.555,-62.500,180.176,-83.984,0.000,0
1749428437.552,8.301,-53.711,159.180,-89.844,0.000,0
1749428437.556,28.320,-56.152,140.625,-75.684,0.000,0
1749428437.560,42.480,-67.871,135.254,-54.199,0.000,0
1749428437.564,31.250,-65.918,122.559,-37.598,0.000,0
1749428437.568,20.508,-85.449,87.891,-47.852,0.000,0
1749428437.572,20.996,-106.445,62.500,-60.059,0.000,0
1749428437.576,15.625,-125.488,45.410,-72.266,0.000,0
1749428437.580,-18.555,-121.582,20.020,-93.262,0.000,0
1749428437.583,-36.621,-129.883,-3.906,-104.492,0.000,0
1749428437.587,-43.457,-156.738,-35.156,-123.047,0.000,0
1749428437.591,-56.641,-165.527,-55.664,-128.906,0.000,0
1749428437.595,-49.805,-172.852,-48.340,-110.352,0.000,0
1749428437.599,-32.227,-158.203,-44.434,-98.145,0.000,0
1749428437.603,-26.367,-153.320,-49.316,-91.797,0.000,0
1749428437.607,-28.809,-159.180,-54.688,-86.914,0.000,0
1749428437.610,-19.531,-147.949,-45.410,-78.613,0.000,0
1749428437.614,11.719,-133.301,-32.227,-55.176,0.000,0
1749428437.619,2.930,-135.254,-46.875,-61.035,0.000,0
1749428437.622,-35.156,-151.855,-67.871,-92.773,0.000,0
1749428437.626,-49.805,-158.691,-83.984,-109.863,0.000,0
1749428437.630,-51.270,-161.133,-93.262,-107.910,0.000,0
1749428437.634,-36.621,-148.926,-82.520,-88.379,0.000,0
1749428437.638,-25.879,-140.625,-76.660,-82.031,0.000,0
1749428437.642,-41.016,-137.695,-94.727,-84.473,0.000,0
1749428437.646,-41.504,-144.531,-106.445,-81.543,0.000,0
1749428437.650,-18.555,-145.020,-107.910,-86.426,0.000,0
1749428437.653,8.789,-127.441,-101.562,-86.426,0.000,0
1749428437.657,4.395,-125.977,-96.191,-69.336,0.000,0
1749428437.661,-16.602,-128.906,-103.516,-65.918,0.000,0
1749428437.666,-19.531,-136.230,-111.328,-78.125,0.000,0
1749428437.669,-12.207,-119.141,-111.328,-78.125,0.000,0
1749428437.673,-0.488,-115.723,-104.980,-84.473,0.000,0
1749428437.677,-8.301,-132.324,-113.770,-89.355,0.000,0
1749428437.681,-12.695,-122.070,-132.324,-75.684,0.000,0
1749428437.685,-6.348,-104.492,-134.277,-68.848,0.000,0
1749428437.689,-3.906,-98.145,-123.535,-63.477,0.000,0
1749428437.693,-19.531,-111.816,-138.672,-71.289,0.000,0
1749428437.697,-35.645,-129.395,-155.762,-84.961,0.000,0
1749428437.700,-19.043,-127.930,-157.227,-83.496,0.000,0
1749428437.704,-16.602,-122.559,-155.762,-89.844,0.000,0
1749428437.708,-30.273,-128.906,-149.414,-100.098,0.000,0
1749428437.713,-24.414,-112.793,-141.602,-92.773,0.000,0
1749428437.716,-17.090,-104.980,-133.789,-83.008,0.000,0
1749428437.720,-23.926,-105.957,-131.348,-84.473,0.000,0
1749428437.724,-15.625,-93.750,-126.465,-79.102,0.000,0
1749428437.728,-11.230,-96.680,-119.629,-78.125,0.000,0
1749428437.732,-27.344,-108.398,-120.117,-83.496,0.000,0
1749428437.736,-38.086,-100.098,-120.117,-83.984,0.000,0
1749428437.740,-50.781,-92.285,-121.582,-87.402,0.000,0
1749428437.744,-44.434,-92.773,-124.512,-87.891,0.000,0
1749428437.747,-36.621,-93.262,-129.883,-89.355,0.000,0
1749428437.751,-42.969,-96.680,-128.418,-88.867,0.000,0
1749428437.755,-44.922,-94.727,-116.211,-84.961,0.000,0
1749428437.760,-60.059,-91.797,-121.582,-93.750,0.000,0
1749428437.763,-62.012,-92.285,-132.324,-110.352,0.000,0
1749428437.767,-69.336,-91.797,-138.184,-125.488,0.000,0
1749428437.771,-73.242,-88.379,-136.230,-120.117,0.000,0
1749428437.775,-51.758,-83.496,-139.160,-105.957,0.000,0
1749428437.779,-81.543,-103.027,-144.531,-126.953,0.000,0
1749428437.783,-110.840,-113.770,-150.879,-139.648,0.000,0
1749428437.787,-90.820,-124.023,-153.320,-127.441,0.000,0
1749428437.790,-76.172,-131.348,-140.625,-111.816,0.000,0
1749428437.794,-79.590,-124.023,-139.648,-108.398,0.000,0
1749428437.798,-80.078,-120.117,-134.766,-103.516,0.000,0
1749428437.802,-70.801,-105.957,-122.070,-96.191,0.000,0
1749428437.806,-72.266,-103.027,-124.023,-103.516,0.000,0
1749428437.810,-73.730,-115.234,-125.488,-106.934,0.000,0
1749428437.814,-69.336,-109.863,-118.652,-95.215,0.000,0
1749428437.818,-75.684,-111.816,-115.234,-93.750,0.000,0
1749428437.822,-104.980,-115.723,-129.395,-113.770,0.000,0
1749428437.826,-125.488,-130.859,-148.438,-135.742,0.000,0
1749428437.830,-114.746,-146.973,-146.484,-136.230,0.000,0
1749428437.833,-103.027,-139.160,-142.090,-123.047,0.000,0
1749428437.837,-109.375,-132.324,-150.879,-140.137,0.000,0
1749428437.841,-108.887,-125.488,-150.879,-157.227,0.000,0
1749428437.845,-123.047,-130.371,-155.273,-155.762,0.000,0
1749428437.849,-121.582,-125.977,-147.949,-143.066,0.000,0
1749428437.853,-104.492,-113.281,-124.023,-119.629,0.000,0
1749428437.857,-90.332,-111.328,-128.906,-129.395,0.000,0
1749428437.861,-99.121,-116.211,-143.555,-144.531,0.000,0
1749428437.865,-109.375,-101.562,-135.254,-136.719,0.000,0
1749428437.869,-94.238,-100.586,-118.652,-126.465,0.000,0
1749428437.873,-86.914,-108.398,-109.375,-108.887,0.000,0
1749428437.877,-90.820,-106.445,-112.793,-106.445,0.000,0
1749428437.880,-97.656,-112.793,-119.629,-117.676,0.000,0
1749428437.884,-102.051,-125.488,-126.953,-121.582,0.000,0
1749428437.888,-130.859,-163.574,-154.297,-145.020,0.000,0
1749428437.892,-160.156,-179.199,-182.129,-181.641,0.000,0
1749428437.896,-183.594,-198.242,-206.055,-205.078,0.000,0
1749428437.900,-180.664,-206.055,-207.520,-198.730,0.000,0
1749428437.904,-165.039,-187.500,-203.613,-204.590,0.000,0
1749428437.908,-165.527,-192.871,-204.102,-210.938,0.000,0
1749428437.912,-161.621,-195.801,-196.777,-208.008,0.000,0
1749428437.916,-165.527,-191.406,-194.824,-206.055,0.000,0
1749428437.919,-181.152,-192.383,-190.918,-206.055,0.000,0
1749428437.923,-159.180,-182.129,-178.223,-198.730,0.000,0
1749428437.927,-139.648,-173.340,-172.363,-189.941,0.000,0
1749428437.931,-150.391,-180.664,-181.152,-201.172,0.000,0
1749428437.935,-164.062,-181.152,-170.410,-194.824,0.000,0
1749428437.939,-161.621,-165.527,-159.668,-180.176,0.000,0
1749428437.943,-166.992,-159.180,-170.898,-193.848,0.000,0
1749428437.947,-177.246,-171.387,-183.105,-211.914,0.000,0
1749428437.951,-183.594,-188.477,-198.730,-216.309,0.000,0
1749428437.955,-184.082,-195.312,-191.406,-203.613,0.000,0
1749428437.959,-181.641,-182.129,-174.805,-189.453,0.000,0
1749428437.962,-173.828,-163.086,-178.711,-188.965,0.000,0
1749428437.966,-165.527,-171.387,-180.176,-186.035,0.000,0
1749428437.970,-183.105,-195.312,-184.570,-198.730,0.000,0
1749428437.974,-188.965,-193.848,-198.242,-219.238,0.000,0
1749428437.978,-179.199,-187.500,-194.336,-211.914,0.000,0
1749428437.982,-172.852,-173.340,-176.270,-192.383,0.000,0
1749428437.986,-190.918,-187.012,-180.664,-201.172,0.000,0
1749428437.990,-189.941,-191.406,-182.129,-205.078,0.000,0
1749428437.994,-165.527,-174.316,-166.016,-194.336,0.000,0
1749428437.998,-148.926,-162.109,-159.668,-187.012,0.000,0
1749428438.001,-147.949,-169.434,-169.434,-192.871,0.000,0
1749428438.005,-167.969,-175.293,-170.898,-197.266,0.000,0
1749428438.009,-172.363,-161.621,-174.316,-217.285,0.000,0
1749428438.013,-178.223,-179.199,-190.430,-265.625,0.000,0
1749428438.017,-202.637,-207.031,-206.543,-293.945,0.000,0
1749428438.021,-222.168,-218.750,-219.727,-317.871,0.000,0
1749428438.025,-228.027,-213.379,-216.309,-321.289,0.000,0
1749428438.029,-220.703,-232.422,-220.703,-321.289,0.000,0
1749428438.032,-187.988,-235.840,-206.055,-289.062,0.000,0
1749428438.036,-188.965,-212.402,-191.406,-259.766,0.000,0
1749428438.041,-204.102,-213.867,-212.891,-281.738,0.000,0
1749428438.045,-228.516,-226.074,-232.910,-321.777,0.000,0
1749428438.048,-264.160,-245.605,-249.023,-333.496,0.000,0
1749428438.052,-257.324,-246.582,-257.812,-337.402,0.000,0
1749428438.056,-230.469,-230.469,-238.770,-320.801,0.000,0
1749428438.060,-223.145,-223.633,-225.586,-299.316,0.000,0
1749428438.064,-232.422,-232.422,-230.469,-314.453,0.000,0
1749428438.068,-234.863,-222.656,-228.516,-305.176,0.000,0
1749428438.072,-239.258,-236.328,-233.887,-301.758,0.000,0
1749428438.076,-250.000,-258.789,-234.863,-317.383,0.000,0
1749428438.079,-262.207,-260.742,-241.699,-323.242,0.000,0
1749428438.083,-265.625,-265.625,-253.418,-328.613,0.000,0
1749428438.088,-258.301,-277.344,-252.441,-325.195,0.000,0
1749428438.092,-272.949,-290.039,-257.324,-329.102,0.000,0
1749428438.095,-294.434,-283.691,-254.395,-334.473,0.000,0
1749428438.099,-301.270,-290.527,-255.371,-333.496,0.000,0
1749428438.103,-283.691,-286.621,-259.766,-328.613,0.000,0
1749428438.107,-279.785,-273.438,-257.324,-324.219,0.000,0
1749428438.111,-278.320,-282.715,-253.906,-321.777,0.000,0
1749428438.115,-277.344,-289.551,-250.977,-318.848,0.000,0
1749428438.119,-271.484,-272.461,-254.395,-321.777,0.000,0
1749428438.123,-283.691,-283.203,-273.926,-337.402,0.000,0
1749428438.126,-367.188,-348.633,-334.473,-411.133,0.000,0
1749428438.130,-434.570,-421.387,-417.969,-491.211,0.000,0
1749428438.135,-501.953,-505.859,-482.910,-548.828,0.000,0
1749428438.139,-571.777,-569.824,-524.902,-592.773,0.000,0
1749428438.142,-603.516,-591.309,-567.383,-626.953,0.000,0
1749428438.146,-610.840,-596.191,-590.332,-642.578,0.000,0
1749428438.150,-609.863,-594.238,-601.074,-645.996,0.000,0
1749428438.154,-615.234,-617.188,-608.398,-660.156,0.000,0
1749428438.158,-635.742,-638.672,-620.605,-679.199,0.000,0
1749428438.162,-648.926,-624.023,-628.906,-691.895,0.000,0
1749428438.166,-662.598,-654.297,-648.926,-703.125,0.000,0
1749428438.170,-669.434,-691.895,-654.785,-689.453,0.000,0
1749428438.173,-669.434,-675.781,-639.160,-673.340,0.000,0
1749428438.177,-693.848,-669.922,-654.297,-695.801,0.000,0
1749428438.182,-683.105,-668.945,-663.086,-702.148,0.000,0
1749428438.185,-667.480,-657.227,-651.367,-682.617,0.000,0
1749428438.189,-668.457,-656.250,-624.512,-666.016,0.000,0
1749428438.193,-654.785,-634.277,-600.098,-655.273,0.000,0
1749428438.197,-632.324,-596.680,-583.496,-628.418,0.000,0
1749428438.201,-594.238,-573.242,-546.387,-584.473,0.000,0
1749428438.205,-571.289,-574.219,-522.461,-568.359,0.000,0
1749428438.209,-553.711,-546.387,-516.113,-560.547,0.000,0
1749428438.213,-544.434,-524.414,-508.789,-543.457,0.000,0
1749428438.216,-519.531,-506.836,-481.934,-511.230,0.000,0
1749428438.220,-484.375,-473.633,-453.613,-489.258,0.000,0
1749428438.224,-470.215,-459.473,-439.941,-474.609,0.000,0
1749428438.228,-465.332,-445.312,-434.570,-465.820,0.000,0
1749428438.232,-432.617,-425.781,-414.062,-439.453,0.000,0
1749428438.236,-397.461,-401.855,-386.230,-411.133,0.000,0
1749428438.240,-385.254,-387.695,-385.742,-406.738,0.000,0
1749428438.244,-365.723,-374.023,-377.930,-396.484,0.000,0
1749428438.248,-354.004,-361.328,-354.980,-383.789,0.000,0
1749428438.252,-362.305,-357.910,-350.098,-374.512,0.000,0
1749428438.256,-365.723,-344.727,-351.562,-375.977,0.000,0
1749428438.259,-330.566,-324.219,-334.473,-359.375,0.000,0
1749428438.263,-295.410,-315.430,-309.082,-324.219,0.000,0
1749428438.267,-307.617,-311.523,-296.875,-319.824,0.000,0
1749428438.271,-311.035,-298.828,-291.016,-306.641,0.000,0
1749428438.275,-276.855,-293.457,-282.227,-279.785,0.000,0
1749428438.279,-270.508,-291.504,-290.039,-305.664,0.000,0
1749428438.283,-262.207,-268.066,-283.203,-307.129,0.000,0
1749428438.287,-234.375,-263.184,-265.137,-264.648,0.000,0
1749428438.291,-223.145,-255.371,-253.418,-253.906,0.000,0
1749428438.295,-236.816,-228.516,-254.883,-263.184,0.000,0
1749428438.299,-260.742,-251.953,-264.160,-275.391,0.000,0
1749428438.302,-253.906,-247.559,-249.023,-262.695,0.000,0
1749428438.306,-242.676,-229.980,-242.676,-257.812,0.000,0
1749428438.310,-234.863,-235.352,-244.629,-264.648,0.000,0
1749428438.314,-211.914,-214.844,-222.656,-245.117,0.000,0
1749428438.318,-206.055,-216.309,-224.121,-248.047,0.000,0
1749428438.322,-212.891,-226.074,-238.281,-260.742,0.000,0
1749428438.326,-207.031,-222.656,-226.074,-243.652,0.000,0
1749428438.330,-195.312,-223.145,-214.355,-234.863,0.000,0
1749428438.334,-193.359,-217.773,-206.543,-223.633,0.000,0
1749428438.338,-201.172,-212.891,-206.055,-212.402,0.000,0
1749428438.341,-187.500,-215.820,-202.148,-222.168,0.000,0
1749428438.345,-177.734,-191.895,-197.266,-212.402,0.000,0
1749428438.349,-182.129,-171.387,-194.336,-204.590,0.000,0
1749428438.353,-185.547,-185.059,-191.406,-208.496,0.000,0
1749428438.357,-166.016,-174.316,-183.594,-198.730,0.000,0
1749428438.361,-154.785,-157.715,-171.875,-189.941,0.000,0
1749428438.365,-166.992,-167.969,-181.641,-199.219,0.000,0
1749428438.369,-154.297,-159.668,-180.176,-189.453,0.000,0
1749428438.373,-131.348,-154.785,-169.922,-177.246,0.000,0
1749428438.377,-139.160,-172.852,-164.062,-179.688,0.000,0
1749428438.381,-159.668,-169.922,-157.715,-169.434,0.000,0
1749428438.384,-160.645,-172.363,-166.504,-180.176,0.000,0
1749428438.388,-148.438,-155.762,-160.156,-164.551,0.000,0
1749428438.392,-138.184,-147.949,-162.109,-161.133,0.000,0
1749428438.396,-135.742,-157.227,-173.340,-175.293,0.000,0
1749428438.400,-151.855,-151.367,-170.898,-165.527,0.000,0
1749428438.404,-164.551,-162.109,-174.805,-155.762,0.000,0
1749428438.408,-154.785,-159.668,-174.316,-165.527,0.000,0
1749428438.412,-151.367,-160.645,-174.805,-170.410,0.000,0
1749428438.416,-146.484,-165.039,-167.969,-149.902,0.000,0
1749428438.420,-141.113,-159.668,-163.086,-143.066,0.000,0
1749428438.423,-142.090,-146.484,-167.480,-152.344,0.000,0
1749428438.427,-149.414,-138.184,-166.016,-151.367,0.000,0
1749428438.431,-140.137,-155.762,-162.598,-141.113,0.000,0
1749428438.435,-150.391,-161.133,-167.969,-147.949,0.000,0
1749428438.439,-167.969,-161.133,-164.551,-154.297,0.000,0
1749428438.443,-166.016,-167.480,-169.434,-168.457,0.000,0
1749428438.447,-161.621,-169.922,-185.547,-187.500,0.000,0
1749428438.451,-153.320,-169.434,-172.852,-175.781,0.000,0
1749428438.454,-150.879,-163.574,-156.738,-155.762,0.000,0
1749428438.458,-168.945,-162.598,-166.504,-178.711,0.000,0
1749428438.463,-155.762,-156.250,-163.574,-186.035,0.000,0
1749428438.467,-134.766,-147.461,-149.414,-163.574,0.000,0
1749428438.470,-141.113,-159.668,-136.719,-149.902,0.000,0
1749428438.474,-130.859,-157.715,-120.117,-135.742,0.000,0
1749428438.478,-123.535,-132.324,-121.582,-127.930,0.000,0
1749428438.482,-145.996,-95.703,-129.883,-166.504,0.000,0
1749428438.486,-158.203,-95.703,-120.605,-200.684,0.000,0
1749428438.490,-161.133,-96.680,-108.398,-187.988,0.000,0
1749428438.494,-202.637,-89.844,-114.258,-210.938,0.000,0
1749428438.497,-252.441,-104.004,-123.535,-256.348,0.000,0
1749428438.501,-278.320,-103.516,-128.418,-283.203,0.000,0
1749428438.505,-275.879,-91.797,-124.512,-304.688,0.000,0
1749428438.510,-292.969,-78.125,-122.559,-338.379,0.000,0
1749428438.513,-297.852,-76.172,-121.582,-353.516,0.000,0
1749428438.517,-318.848,-71.777,-114.258,-355.469,0.000,0
1749428438.521,-368.164,-67.383,-115.723,-377.441,0.000,0
1749428438.525,-380.371,-66.895,-124.512,-400.391,0.000,0
1749428438.529,-398.926,-66.895,-132.812,-427.734,0.000,0
1749428438.533,-382.812,-76.172,-123.047,-415.527,0.000,0
1749428438.537,-378.418,-87.891,-106.934,-403.809,0.000,0
1749428438.541,-393.555,-82.520,-115.723,-437.988,0.000,0
1749428438.544,-381.348,-77.637,-130.371,-432.129,0.000,0
1749428438.548,-416.504,-94.238,-147.949,-429.199,0.000,0
1749428438.552,-425.293,-122.559,-160.645,-441.895,0.000,0
1749428438.556,-390.625,-129.395,-171.387,-436.035,0.000,0
1749428438.560,-382.812,-121.582,-193.848,-434.082,0.000,0
1749428438.564,-429.688,-166.992,-239.746,-458.496,0.000,0
1749428438.568,-455.566,-225.098,-281.250,-465.332,0.000,0
1749428438.572,-439.941,-232.422,-281.738,-449.219,0.000,0
1749428438.576,-427.246,-230.957,-283.203,-452.148,0.000,0
1749428438.580,-382.324,-229.004,-276.367,-431.641,0.000,0
1749428438.584,-356.445,-245.117,-269.043,-421.387,0.000,0
1749428438.587,-355.957,-246.582,-282.715,-412.598,0.000,0
1749428438.591,-355.469,-270.508,-290.039,-403.320,0.000,0
1749428438.595,-397.461,-341.797,-342.285,-443.359,0.000,0
1749428438.599,-416.992,-359.863,-373.047,-460.938,0.000,0
1749428438.603,-366.211,-324.219,-343.262,-411.133,0.000,0
1749428438.607,-335.938,-318.359,-342.773,-388.672,0.000,0
1749428438.611,-356.445,-319.336,-354.004,-395.996,0.000,0
1749428438.615,-352.539,-322.754,-342.773,-383.789,0.000,0
1749428438.619,-349.609,-341.797,-346.680,-370.605,0.000,0
1749428438.623,-354.492,-344.727,-359.375,-377.441,0.000,0
1749428438.627,-335.938,-346.680,-357.422,-375.977,0.000,0
1749428438.630,-317.871,-331.543,-340.332,-343.262,0.000,0
1749428438.634,-295.410,-323.242,-339.844,-328.125,0.000,0
1749428438.638,-281.250,-328.125,-354.492,-333.008,0.000,0
1749428438.642,-283.691,-327.637,-344.727,-320.312,0.000,0
1749428438.646,-282.227,-320.312,-333.008,-302.246,0.000,0
1749428438.650,-297.363,-331.055,-337.402,-311.035,0.000,0
1749428438.654,-306.152,-337.891,-341.797,-317.871,0.000,0
1749428438.658,-288.574,-322.754,-329.102,-309.570,0.000,0
1749428438.662,-283.691,-330.078,-326.660,-311.523,0.000,0
1749428438.666,-304.688,-362.305,-339.844,-320.801,0.000,0
1749428438.670,-305.664,-351.562,-334.961,-313.965,0.000,0
1749428438.673,-283.203,-335.938,-330.078,-296.875,0.000,0
1749428438.677,-303.711,-341.309,-348.145,-311.523,0.000,0
1749428438.681,-291.992,-343.750,-349.121,-304.688,0.000,0
1749428438.685,-271.484,-343.750,-343.750,-298.828,0.000,0
1749428438.689,-295.898,-359.863,-355.957,-314.941,0.000,0
1749428438.693,-324.707,-375.977,-375.488,-329.102,0.000,0
1749428438.697,-330.566,-375.488,-378.906,-329.102,0.000,0
1749428438.701,-307.129,-377.930,-380.371,-315.918,0.000,0
1749428438.705,-320.312,-384.766,-386.719,-316.895,0.000,0
1749428438.709,-352.051,-408.691,-406.738,-359.863,0.000,0
1749428438.713,-349.121,-401.367,-420.898,-379.883,0.000,0
1749428438.717,-330.566,-392.090,-410.645,-360.352,0.000,0
1749428438.721,-316.406,-397.461,-390.625,-351.562,0.000,0
1749428438.724,-323.730,-397.949,-387.695,-346.680,0.000,0
1749428438.728,-345.215,-389.648,-393.555,-341.797,0.000,0
1749428438.732,-349.609,-383.789,-390.137,-339.844,0.000,0
1749428438.736,-337.891,-390.137,-383.789,-340.820,0.000,0
1749428438.740,-327.148,-377.930,-382.812,-345.215,0.000,0
1749428438.744,-329.102,-366.211,-392.090,-358.398,0.000,0
1749428438.748,-344.727,-382.324,-412.109,-354.980,0.000,0
1749428438.752,-354.004,-400.391,-417.480,-362.793,0.000,0
1749428438.756,-368.652,-399.902,-412.598,-375.488,0.000,0
1749428438.760,-357.422,-392.090,-400.391,-373.535,0.000,0
1749428438.763,-335.938,-378.906,-395.020,-377.930,0.000,0
1749428438.767,-337.891,-363.770,-394.043,-360.352,0.000,0
1749428438.771,-324.219,-353.027,-379.395,-339.355,0.000,0
1749428438.775,-319.824,-367.188,-370.605,-329.102,0.000,0
1749428438.779,-317.871,-351.562,-359.863,-323.730,0.000,0
1749428438.783,-280.762,-327.148,-340.820,-308.105,0.000,0
1749428438.787,-288.086,-330.078,-335.938,-309.082,0.000,0
1749428438.791,-278.320,-299.316,-317.871,-297.363,0.000,0
1749428438.795,-213.867,-242.188,-262.695,-240.723,0.000,0
1749428438.799,-191.406,-220.703,-238.281,-218.262,0.000,0
1749428438.802,-195.801,-223.633,-242.188,-204.102,0.000,0
1749428438.806,-217.773,-248.535,-248.535,-208.008,0.000,0
1749428438.810,-194.336,-248.535,-245.117,-201.660,0.000,0
1749428438.814,-167.480,-210.938,-228.027,-185.547,0.000,0
1749428438.818,-170.898,-170.898,-213.379,-197.266,0.000,0
1749428438.822,-184.570,-170.898,-220.215,-207.031,0.000,0
1749428438.826,-202.148,-191.895,-230.957,-212.402,0.000,0
1749428438.830,-200.684,-176.270,-233.887,-213.867,0.000,0
1749428438.833,-189.941,-153.809,-227.051,-208.984,0.000,0
1749428438.838,-187.012,-142.090,-213.867,-205.566,0.000,0
1749428438.842,-183.105,-142.090,-203.613,-192.383,0.000,0
1749428438.846,-186.523,-153.320,-203.613,-188.477,0.000,0
1749428438.849,-156.250,-131.348,-180.664,-163.574,0.000,0
1749428438.853,-141.602,-124.023,-166.992,-152.344,0.000,0
1749428438.857,-165.527,-163.086,-193.359,-187.500,0.000,0
1749428438.861,-151.367,-152.344,-200.195,-182.129,0.000,0
1749428438.865,-143.066,-132.324,-187.012,-161.133,0.000,0
1749428438.869,-129.395,-124.023,-164.551,-137.695,0.000,0
1749428438.873,-121.094,-113.281,-154.297,-121.582,0.000,0
1749428438.877,-129.395,-130.859,-160.156,-136.230,0.000,0
1749428438.880,-117.676,-124.023,-149.902,-134.277,0.000,0
1749428438.885,-104.004,-106.445,-128.906,-99.609,0.000,0
1749428438.889,-99.609,-123.047,-118.164,-88.379,0.000,0
1749428438.892,-107.422,-128.906,-130.371,-107.910,0.000,0
1749428438.896,-95.215,-109.863,-141.602,-116.699,0.000,0
1749428438.900,-82.520,-112.793,-142.090,-121.094,0.000,0
1749428438.904,-94.238,-117.676,-148.438,-118.652,0.000,0
1749428438.908,-96.191,-107.910,-145.508,-115.234,0.000,0
1749428438.912,-104.980,-111.816,-140.137,-114.746,0.000,0
1749428438.916,-76.172,-83.008,-116.211,-84.961,0.000,0
1749428438.920,-67.871,-84.961,-114.258,-92.773,0.000,0
1749428438.923,-106.445,-114.746,-138.672,-126.953,0.000,0
1749428438.927,-93.262,-102.539,-136.230,-117.188,0.000,0
1749428438.932,-93.262,-102.539,-137.695,-107.422,0.000,0
1749428438.935,-81.543,-91.797,-119.141,-94.727,0.000,0
1749428438.939,-70.801,-94.727,-97.656,-88.379,0.000,0
1749428438.943,-101.074,-108.398,-122.559,-111.328,0.000,0
1749428438.947,-107.422,-116.211,-147.949,-118.652,0.000,0
1749428438.951,-100.586,-120.117,-133.301,-102.051,0.000,0
1749428438.955,-93.262,-96.680,-111.328,-107.422,0.000,0
1749428438.959,-96.191,-81.543,-115.723,-114.746,0.000,0
1749428438.963,-96.191,-83.008,-104.004,-90.820,0.000,0
1749428438.966,-82.031,-93.750,-93.262,-84.473,0.000,0
1749428438.970,-81.055,-101.074,-109.375,-90.820,0.000,0
1749428438.974,-90.332,-97.168,-115.723,-107.910,0.000,0
1749428438.979,-119.629,-109.863,-123.535,-137.207,0.000,0
1749428438.982,-128.418,-115.723,-120.605,-120.117,0.000,0
1749428438.986,-109.375,-112.793,-109.375,-104.004,0.000,0
1749428438.990,-122.070,-106.445,-107.910,-111.816,0.000,0
1749428438.994,-149.902,-106.445,-117.676,-130.859,0.000,0
1749428438.998,-137.695,-116.699,-118.164,-131.836,0.000,0
1749428439.002,-130.371,-119.629,-120.117,-126.953,0.000,0
1749428439.006,-114.746,-118.164,-108.887,-105.957,0.000,0
1749428439.009,-112.305,-109.863,-104.980,-97.656,0.000,0
1749428439.013,-136.230,-102.051,-119.141,-125.000,0.000,0
1749428439.017,-138.672,-112.793,-122.559,-135.254,0.000,0
1749428439.021,-125.977,-115.234,-118.164,-128.418,0.000,0
1749428439.025,-118.652,-107.910,-116.211,-120.117,0.000,0
1749428439.029,-104.004,-105.469,-100.586,-98.145,0.000,0
1749428439.033,-105.957,-101.562,-97.168,-104.980,0.000,0
1749428439.037,-105.957,-106.934,-104.004,-112.793,0.000,0
1749428439.041,-73.242,-105.469,-96.191,-89.844,0.000,0
1749428439.045,-88.867,-102.051,-117.188,-103.027,0.000,0
1749428439.049,-125.000,-109.863,-136.719,-125.000,0.000,0
1749428439.052,-114.746,-111.816,-115.234,-110.352,0.000,0
1749428439.056,-93.262,-100.586,-107.422,-106.934,0.000,0
1749428439.060,-74.707,-79.102,-86.426,-83.008,0.000,0
1749428439.064,-75.195,-94.238,-91.797,-73.730,0.000,0
1749428439.068,-96.191,-104.980,-123.535,-109.375,0.000,0
1749428439.072,-95.703,-100.586,-115.234,-111.816,0.000,0
1749428439.076,-90.820,-114.258,-118.652,-105.469,0.000,0
1749428439.080,-82.031,-100.586,-107.422,-90.820,0.000,0
1749428439.084,-83.496,-106.934,-97.168,-76.172,0.000,0
1749428439.088,-93.262,-108.398,-102.539,-87.402,0.000,0
1749428439.092,-117.676,-117.676,-108.398,-112.793,0.000,0
1749428439.095,-98.145,-119.141,-103.027,-103.516,0.000,0
1749428439.099,-87.402,-106.934,-112.305,-93.262,0.000,0
1749428439.103,-105.469,-104.980,-128.906,-108.887,0.000,0
1749428439.107,-86.426,-84.961,-109.863,-100.098,0.000,0
1749428439.111,-75.684,-81.543,-105.957,-83.496,0.000,0
1749428439.115,-69.824,-85.449,-117.188,-77.637,0.000,0
1749428439.119,-68.359,-93.750,-106.934,-82.031,0.000,0
1749428439.123,-81.055,-101.562,-92.285,-97.168,0.000,0
1749428439.127,-99.609,-95.703,-95.215,-103.027,0.000,0
1749428439.131,-92.773,-91.309,-93.262,-78.613,0.000,0
1749428439.134,-96.680,-99.121,-103.516,-84.473,0.000,0
1749428439.138,-92.285,-99.609,-123.535,-91.797,0.000,0
1749428439.142,-98.633,-111.816,-135.742,-96.680,0.000,0
1749428439.146,-95.703,-106.445,-127.441,-91.797,0.000,0
1749428439.150,-45.410,-69.336,-115.234,-66.406,0.000,0
1749428439.154,-28.809,-77.637,-115.723,-65.430,0.000,0
1749428439.158,-35.645,-85.938,-111.816,-60.547,0.000,0
1749428439.162,-54.688,-91.309,-118.164,-74.219,0.000,0
1749428439.166,-82.031,-100.098,-133.789,-93.750,0.000,0
1749428439.170,-85.938,-89.355,-138.184,-104.492,0.000,0
1749428439.174,-70.801,-104.004,-118.164,-97.656,0.000,0
1749428439.178,-68.848,-105.469,-125.488,-89.844,0.000,0
1749428439.181,-71.289,-95.703,-122.559,-88.867,0.000,0
1749428439.185,-62.500,-89.844,-107.422,-77.637,0.000,0
1749428439.189,-60.547,-74.707,-110.352,-82.031,0.000,0
1749428439.193,-62.500,-73.730,-101.562,-83.984,0.000,0
1749428439.197,-57.617,-88.379,-94.238,-77.148,0.000,0
1749428439.201,-72.754,-98.633,-104.492,-92.773,0.000,0
1749428439.205,-62.012,-86.914,-108.398,-87.402,0.000,0
1749428439.209,-38.574,-84.473,-112.305,-82.520,0.000,0
1749428439.213,-70.801,-86.426,-114.258,-93.262,0.000,0
1749428439.217,-91.797,-87.891,-100.098,-82.520,0.000,0
1749428439.221,-80.078,-103.516,-96.191,-87.402,0.000,0
1749428439.225,-53.223,-90.332,-92.285,-79.590,0.000,0
1749428439.228,-49.805,-74.707,-92.773,-64.453,0.000,0
1749428439.232,-62.500,-66.895,-86.426,-69.824,0.000,0
1749428439.236,-78.125,-87.891,-93.750,-83.984,0.000,0
1749428439.240,-71.777,-104.004,-106.445,-77.148,0.000,0
1749428439.244,-61.523,-82.520,-104.980,-81.055,0.000,0
1749428439.248,-59.082,-79.102,-99.121,-92.285,0.000,0
1749428439.252,-56.152,-85.938,-85.449,-70.801,0.000,0
1749428439.256,-44.922,-83.984,-71.777,-40.039,0.000,0
1749428439.260,-44.922,-73.730,-63.477,-40.527,0.000,0
1749428439.264,-67.383,-80.566,-83.496,-67.383,0.000,0
1749428439.268,-83.008,-73.730,-99.121,-80.078,0.000,0
1749428439.272,-72.266,-72.266,-92.285,-74.219,0.000,0
1749428439.276,-61.035,-85.938,-84.473,-71.289,0.000,0
1749428439.279,-71.289,-83.984,-76.660,-73.242,0.000,0
1749428439.283,-57.129,-76.172,-81.055,-73.242,0.000,0
1749428439.287,-25.879,-63.477,-74.707,-64.453,0.000,0
1749428439.291,-56.152,-72.266,-60.059,-56.152,0.000,0
1749428439.295,-64.453,-82.520,-67.383,-60.547,0.000,0
1749428439.299,-54.199,-75.684,-65.430,-52.246,0.000,0
1749428439.303,-73.730,-63.477,-60.059,-53.223,0.000,0
1749428439.307,-68.359,-56.152,-62.500,-62.500,0.000,0
1749428439.311,-50.293,-80.566,-69.824,-58.594,0.000,0
1749428439.315,-47.852,-94.727,-74.219,-62.012,0.000,0
1749428439.319,-36.133,-70.801,-65.918,-53.711,0.000,0
1749428439.322,-56.152,-65.918,-77.148,-70.312,0.000,0
1749428439.326,-72.754,-70.312,-87.402,-76.172,0.000,0
1749428439.330,-56.641,-77.148,-81.055,-69.824,0.000,0
1749428439.334,-21.484,-58.105,-62.500,-49.316,0.000,0
1749428439.338,-15.137,-43.945,-66.406,-28.809,0.000,0
1749428439.342,-72.266,-70.801,-83.984,-55.176,0.000,0
1749428439.346,-87.402,-83.984,-95.215,-68.359,0.000,0
1749428439.350,-77.148,-83.008,-97.656,-76.660,0.000,0
1749428439.354,-69.824,-81.543,-86.914,-66.406,0.000,0
1749428439.358,-61.523,-63.477,-88.379,-58.105,0.000,0
1749428439.362,-65.918,-68.359,-94.727,-62.500,0.000,0
1749428439.365,-34.668,-62.500,-71.289,-23.926,0.000,0
1749428439.369,-52.246,-66.895,-72.266,-39.551,0.000,0
1749428439.373,-60.059,-57.129,-86.914,-60.547,0.000,0
1749428439.377,-18.555,-49.805,-88.867,-52.246,0.000,0
1749428439.381,-43.457,-63.965,-88.379,-58.105,0.000,0
1749428439.385,-58.594,-55.664,-83.984,-39.062,0.000,0
1749428439.389,-62.012,-70.801,-87.891,-56.152,0.000,0
1749428439.393,-59.570,-64.941,-86.426,-62.012,0.000,0
1749428439.396,-61.035,-60.059,-79.102,-44.434,0.000,0
1749428439.401,-30.273,-44.922,-62.012,-44.434,0.000,0
1749428439.405,-43.457,-61.523,-76.660,-72.754,0.000,0
1749428439.408,-73.730,-72.754,-100.586,-83.984,0.000,0
1749428439.412,-55.176,-55.176,-83.984,-61.523,0.000,0
1749428439.416,-68.359,-63.965,-79.590,-62.988,0.000,0
1749428439.420,-86.914,-67.383,-88.867,-80.566,0.000,0
1749428439.424,-66.895,-26.367,-67.383,-61.523,0.000,0
1749428439.428,-47.363,4.395,-58.105,-43.457,0.000,0
1749428439.432,-67.383,-28.320,-98.145,-84.473,0.000,0
1749428439.436,-95.703,-22.949,-96.680,-96.191,0.000,0
1749428439.439,-84.961,-4.883,-56.152,-67.383,0.000,0
1749428439.443,-82.520,-19.043,-57.617,-77.148,0.000,0
1749428439.447,-85.449,-22.461,-62.012,-91.309,0.000,0
1749428439.451,-103.027,-12.695,-68.848,-99.121,0.000,0
1749428439.455,-104.004,-1.953,-63.477,-101.074,0.000,0
1749428439.459,-85.449,-13.672,-55.664,-95.703,0.000,0
1749428439.463,-94.727,-24.414,-65.918,-94.238,0.000,0
1749428439.467,-73.242,-17.578,-57.617,-79.590,0.000,0
1749428439.471,-43.945,-14.160,-54.199,-59.570,0.000,0
1749428439.475,-92.285,-47.363,-75.195,-92.285,0.000,0
1749428439.478,-101.562,-47.852,-84.961,-105.957,0.000,0
1749428439.482,-75.684,-33.203,-73.730,-70.312,0.000,0
1749428439.486,-68.848,-33.691,-62.012,-63.965,0.000,0
1749428439.490,-55.176,-16.602,-49.805,-56.641,0.000,0
1749428439.494,-75.195,-25.879,-64.941,-62.500,0.000,0
1749428439.498,-85.938,-36.621,-86.914,-80.078,0.000,0
1749428439.502,-60.059,-14.160,-78.613,-72.266,0.000,0
1749428439.506,-53.223,-13.672,-72.754,-78.125,0.000,0
1749428439.510,-74.219,-22.461,-77.637,-94.238,0.000,0
1749428439.514,-74.707,-23.438,-83.496,-100.586,0.000,0
1749428439.518,-59.082,-17.578,-70.312,-92.773,0.000,0
1749428439.521,-72.754,-20.508,-72.754,-91.309,0.000,0
1749428439.525,-82.520,-16.602,-71.289,-94.727,0.000,0
1749428439.529,-73.242,-1.465,-57.617,-82.520,0.000,0
1749428439.533,-66.895,-5.371,-64.453,-78.125,0.000,0
1749428439.537,-72.754,-20.020,-78.125,-88.867,0.000,0
1749428439.541,-71.777,-17.090,-73.730,-93.262,0.000,0
1749428439.545,-74.219,-10.742,-64.453,-77.637,0.000,0
1749428439.549,-76.172,-5.859,-57.129,-64.453,0.000,0
1749428439.553,-57.129,-17.578,-61.523,-65.918,0.000,0
1749428439.557,-58.105,-24.902,-77.637,-83.008,0.000,0
1749428439.561,-63.965,-18.066,-71.289,-86.426,0.000,0
1749428439.565,-38.574,-7.812,-53.223,-58.105,0.000,0
1749428439.568,-65.430,-18.066,-68.359,-71.289,0.000,0
1749428439.572,-64.941,-26.367,-58.594,-62.988,0.000,0
1749428439.576,-11.230,2.930,-21.484,-18.555,0.000,0
1749428439.580,-32.227,-0.488,-39.551,-31.738,0.000,0
1749428439.584,-73.730,-15.137,-52.734,-50.293,0.000,0
1749428439.588,-64.453,-11.719,-51.758,-45.410,0.000,0
1749428439.592,-46.387,-16.602,-51.758,-50.293,0.000,0
1749428439.596,-41.992,-17.578,-59.570,-75.684,0.000,0
1749428439.600,-19.043,-11.719,-48.340,-45.410,0.000,0
1749428439.604,-17.090,-0.488,-44.922,-30.273,0.000,0
1749428439.608,-41.992,-6.836,-48.340,-41.992,0.000,0
1749428439.611,-44.434,-26.367,-31.250,-28.809,0.000,0
1749428439.615,-65.430,-43.457,-55.664,-58.105,0.000,0
1749428439.619,-64.453,-40.039,-65.430,-65.430,0.000,0
1749428439.623,-43.945,-23.926,-56.152,-59.082,0.000,0
1749428439.627,-46.387,-10.254,-59.570,-58.594,0.000,0
1749428439.631,-43.457,-22.949,-50.781,-51.758,0.000,0
1749428439.635,-27.832,-34.668,-32.227,-34.668,0.000,0
1749428439.639,-36.621,-17.090,-16.113,-51.270,0.000,0
1749428439.643,-45.410,-12.695,5.859,-57.617,0.000,0
1749428439.647,-25.391,-18.555,15.137,-31.250,0.000,0
1749428439.651,-36.621,-29.297,3.906,-55.664,0.000,0
1749428439.655,-54.688,-39.062,-9.277,-74.707,0.000,0
1749428439.658,-49.805,-32.227,5.371,-44.434,0.000,0
1749428439.662,-62.988,-26.855,-3.906,-57.617,0.000,0
1749428439.666,-28.809,-15.137,-0.488,-63.477,0.000,0
1749428439.670,-9.766,-20.020,12.695,-41.992,0.000,0
1749428439.674,-57.617,-23.438,-6.836,-58.105,0.000,0
1749428439.678,-67.383,-19.043,-25.391,-82.031,0.000,0
1749428439.682,-56.641,-20.508,-29.297,-74.707,0.000,0
1749428439.686,-43.945,-37.109,1.465,-56.152,0.000,0
1749428439.690,-48.828,-38.086,12.695,-62.012,0.000,0
1749428439.694,-39.551,-22.461,3.906,-55.664,0.000,0
1749428439.698,-24.414,-7.324,1.465,-62.500,0.000,0
1749428439.701,-36.621,3.418,11.719,-70.801,0.000,0
1749428439.705,-53.711,-35.645,79.590,-58.105,0.000,0
1749428439.709,-77.148,-66.895,113.281,-84.961,0.000,0
1749428439.713,-61.523,-38.574,114.746,-79.590,0.000,0
1749428439.717,-46.387,-14.648,96.680,-67.871,0.000,0
1749428439.721,-47.363,-9.277,67.871,-79.590,0.000,0
1749428439.725,-42.969,5.371,61.523,-71.777,0.000,0
1749428439.729,-47.363,12.695,58.105,-64.941,0.000,0
1749428439.733,-47.363,16.602,62.012,-55.664,0.000,0
1749428439.737,-66.895,0.000,48.828,-71.777,0.000,0
1749428439.740,-67.871,14.648,35.645,-84.961,0.000,0
1749428439.744,-39.551,33.203,40.039,-70.312,0.000,0
1749428439.748,-57.617,15.625,39.551,-66.406,0.000,0
1749428439.752,-59.082,13.672,37.109,-65.918,0.000,0
1749428439.756,-49.316,19.531,41.016,-61.523,0.000,0
1749428439.760,-75.684,-0.977,28.320,-75.195,0.000,0
1749428439.764,-61.523,-3.906,13.672,-81.543,0.000,0
1749428439.768,-50.781,-3.418,17.090,-80.078,0.000,0
1749428439.772,-64.453,-2.930,26.855,-74.219,0.000,0
1749428439.776,-56.641,4.883,19.043,-66.895,0.000,0
1749428439.780,-71.777,0.977,0.977,-87.891,0.000,0
1749428439.783,-69.336,5.371,3.418,-87.891,0.000,0
1749428439.787,-47.852,29.297,15.625,-64.941,0.000,0
1749428439.791,-51.758,18.555,-4.395,-83.984,0.000,0
1749428439.795,-41.016,11.230,-7.812,-74.707,0.000,0
1749428439.799,-53.711,-1.465,-1.953,-68.848,0.000,0
1749428439.803,-62.012,-24.902,-6.348,-68.359,0.000,0
1749428439.807,-59.082,-24.414,-8.301,-61.035,0.000,0
1749428439.811,-72.266,-15.625,-18.555,-66.406,0.000,0
1749428439.814,-62.012,-20.508,-9.277,-55.176,0.000,0
1749428439.818,-57.129,-31.250,-11.719,-58.594,0.000,0
1749428439.823,-57.617,-25.391,-8.301,-56.152,0.000,0
1749428439.826,-43.457,-23.438,3.418,-55.176,0.000,0
1749428439.830,-48.340,-7.324,-6.836,-54.199,0.000,0
1749428439.834,-66.406,-4.883,-13.672,-65.430,0.000,0
1749428439.838,-61.523,-33.203,-14.160,-77.637,0.000,0
1749428439.842,-80.078,-43.945,-18.066,-89.355,0.000,0
1749428439.846,-108.398,-58.594,-29.297,-104.492,0.000,0
1749428439.850,-119.141,-83.984,-53.223,-119.629,0.000,0
1749428439.854,-107.422,-64.453,-62.012,-126.465,0.000,0
1749428439.857,-71.289,-32.715,-32.227,-96.191,0.000,0
1749428439.861,-112.305,-82.520,-56.152,-121.582,0.000,0
1749428439.865,-172.363,-125.977,-100.098,-171.387,0.000,0
1749428439.869,-156.250,-108.398,-97.656,-148.438,0.000,0
1749428439.873,-127.930,-92.773,-90.332,-124.023,0.000,0
1749428439.877,-146.973,-107.422,-109.375,-151.855,0.000,0
1749428439.881,-139.160,-93.262,-110.352,-137.207,0.000,0
1749428439.885,-103.516,-70.801,-79.102,-101.074,0.000,0
1749428439.889,-125.000,-89.355,-74.707,-108.398,0.000,0
1749428439.893,-145.508,-93.262,-101.074,-141.602,0.000,0
1749428439.896,-142.090,-96.191,-104.492,-142.578,0.000,0
1749428439.900,-110.840,-81.543,-74.219,-105.469,0.000,0
1749428439.904,-121.582,-80.078,-80.078,-107.910,0.000,0
1749428439.908,-152.344,-99.609,-102.539,-135.254,0.000,0
1749428439.912,-130.371,-70.801,-86.426,-114.746,0.000,0
1749428439.916,-121.094,-62.500,-73.730,-101.562,0.000,0
1749428439.920,-127.441,-97.656,-84.961,-107.422,0.000,0
1749428439.924,-125.488,-99.609,-92.773,-104.492,0.000,0
1749428439.928,-135.742,-99.121,-96.680,-115.723,0.000,0
1749428439.932,-120.605,-88.379,-72.266,-89.355,0.000,0
1749428439.935,-137.207,-105.469,-87.891,-113.770,0.000,0
1749428439.939,-126.465,-94.727,-103.027,-130.859,0.000,0
1749428439.943,-127.930,-89.355,-92.285,-124.023,0.000,0
1749428439.947,-145.508,-98.633,-78.125,-116.211,0.000,0
1749428439.951,-125.977,-88.867,-66.895,-93.750,0.000,0
1749428439.955,-109.375,-81.543,-68.848,-80.078,0.000,0
1749428439.959,-112.305,-79.102,-72.754,-81.543,0.000,0
1749428439.963,-123.047,-87.891,-67.383,-97.656,0.000,0
1749428439.967,-123.047,-86.426,-43.457,-91.797,0.000,0
1749428439.971,-129.395,-91.309,-37.109,-83.008,0.000,0
1749428439.975,-127.441,-86.914,-39.551,-85.938,0.000,0
1749428439.979,-140.137,-94.727,-43.457,-95.215,0.000,0
1749428439.982,-127.441,-99.121,-32.227,-66.895,0.000,0
1749428439.986,-121.094,-86.426,-21.484,-46.387,0.000,0
1749428439.990,-110.352,-74.707,-11.719,-43.457,0.000,0
1749428439.994,-76.660,-55.176,-2.930,-31.250,0.000,0
1749428439.998,-101.074,-70.801,-23.926,-48.340,0.000,0
1749428440.002,-110.840,-86.914,-38.086,-59.570,0.000,0
1749428440.006,-75.195,-62.012,-11.719,-32.227,0.000,0
1749428440.010,-73.242,-58.594,0.977,-40.527,0.000,0
1749428440.014,-50.293,-48.340,15.137,-12.207,0.000,0
1749428440.018,-23.438,-28.320,44.922,38.574,0.000,0
1749428440.022,-55.176,-45.898,31.738,8.789,0.000,0
1749428440.025,-63.965,-52.246,27.344,-6.836,0.000,0
1749428440.029,-57.617,-60.547,16.602,-12.207,0.000,0
1749428440.033,-54.688,-53.711,5.371,-17.090,0.000,0
1749428440.037,-42.969,-31.250,26.367,17.578,0.000,0
1749428440.041,-41.016,-38.086,22.461,-5.859,0.000,0
1749428440.045,-59.570,-59.082,-12.207,-20.996,0.000,0
1749428440.049,-76.660,-55.176,3.906,6.836,0.000,0
1749428440.053,-38.574,-32.227,14.648,-26.855,0.000,0
1749428440.057,-14.648,-35.645,-7.812,-20.996,0.000,0
1749428440.061,-48.340,-53.711,-7.812,-0.977,0.000,0
1749428440.065,-63.477,-58.105,-8.301,-17.578,0.000,0
1749428440.069,-41.992,-52.734,0.488,-15.137,0.000,0
1749428440.072,-33.203,-52.734,-9.277,-23.926,0.000,0
1749428440.076,-51.758,-46.387,-17.578,-21.484,0.000,0
1749428440.080,-16.602,-31.738,5.859,6.836,0.000,0
1749428440.084,-4.883,-44.434,-4.883,-10.254,0.000,0
1749428440.088,-18.555,-53.223,-16.113,-3.418,0.000,0
1749428440.092,-35.645,-50.293,-9.766,17.578,0.000,0
1749428440.096,-59.082,-56.152,-4.883,8.301,0.000,0
1749428440.100,-6.348,-51.758,1.465,36.621,0.000,0
1749428440.104,-2.930,-44.922,-11.230,68.848,0.000,0
1749428440.108,-26.855,-46.387,-21.484,21.973,0.000,0
1749428440.112,-26.855,-49.316,-16.602,0.000,0.000,0
1749428440.115,-27.832,-58.594,-8.789,71.777,0.000,0
1749428440.119,-24.414,-51.270,-14.160,83.984,0.000,0
1749428440.123,-20.996,-42.480,-22.461,39.551,0.000,0
1749428440.127,-41.992,-58.105,-14.160,-0.488,0.000,0
1749428440.131,-50.781,-62.988,-22.949,-1.465,0.000,0
1749428440.135,-48.340,-61.035,-54.199,32.227,0.000,0
1749428440.139,-36.621,-52.734,-54.688,18.066,0.000,0
1749428440.143,-40.039,-50.781,-55.176,25.879,0.000,0
1749428440.146,-34.668,-59.082,-46.875,50.781,0.000,0
1749428440.151,-10.742,-40.039,-26.855,93.262,0.000,0
1749428440.155,-22.949,-44.434,-43.945,46.387,0.000,0
1749428440.158,-26.367,-46.387,-27.344,23.926,0.000,0
1749428440.162,-38.086,-48.828,-27.344,10.742,0.000,0
1749428440.166,-63.965,-67.871,-19.531,-14.648,0.000,0
1749428440.170,-50.781,-43.457,-12.695,45.410,0.000,0
1749428440.174,-23.926,-28.809,-70.312,105.469,0.000,0
1749428440.178,-54.199,-50.293,-71.289,76.172,0.000,0
1749428440.182,-37.109,-46.875,-66.406,103.516,0.000,0
1749428440.186,7.324,-26.855,-62.500,134.766,0.000,0
1749428440.189,-29.297,-22.949,-30.762,52.734,0.000,0
1749428440.193,-79.590,-20.996,-27.344,-20.508,0.000,0
1749428440.197,-61.035,-22.461,-20.020,36.621,0.000,0
1749428440.201,-18.555,-18.555,19.531,141.113,0.000,0
1749428440.205,-10.254,19.531,41.016,147.949,0.000,0
1749428440.209,-92.285,58.594,1.953,27.344,0.000,0
1749428440.213,-125.000,36.621,-15.625,44.434,0.000,0
1749428440.217,-19.043,4.883,30.762,164.062,0.000,0
1749428440.221,24.414,23.926,48.828,185.547,0.000,0
1749428440.225,49.316,78.613,55.664,223.633,0.000,0
1749428440.228,64.941,104.004,87.402,233.887,0.000,0
1749428440.232,74.707,120.605,103.516,217.773,0.000,0
1749428440.236,131.836,145.508,175.293,285.645,0.000,0
1749428440.240,176.758,202.148,219.727,304.688,0.000,0
1749428440.244,183.594,252.441,208.496,286.133,0.000,0
1749428440.248,158.691,256.836,233.887,244.629,0.000,0
1749428440.252,181.152,264.160,287.598,288.086,0.000,0
1749428440.256,271.484,287.109,286.133,449.219,0.000,0
1749428440.260,355.957,323.730,258.301,449.707,0.000,0
1749428440.264,382.324,323.242,276.367,491.699,0.000,0
1749428440.268,365.723,309.570,304.688,507.324,0.000,0
1749428440.271,319.336,341.309,310.547,431.152,0.000,0
1749428440.275,326.660,345.703,303.711,479.004,0.000,0
1749428440.279,384.277,317.871,292.969,527.832,0.000,0
1749428440.283,403.320,294.922,307.129,563.965,0.000,0
1749428440.287,345.215,292.969,313.477,507.812,0.000,0
1749428440.291,302.734,316.895,285.645,472.168,0.000,0
1749428440.295,303.711,334.473,278.320,541.992,0.000,0
1749428440.299,301.270,316.406,280.762,556.152,0.000,0
1749428440.303,333.984,271.973,281.250,551.270,0.000,0
1749428440.307,307.129,308.105,285.156,504.883,0.000,0
1749428440.310,295.410,305.664,314.941,478.027,0.000,0
1749428440.314,298.340,289.551,310.547,499.023,0.000,0
1749428440.318,300.293,319.336,229.492,551.758,0.000,0
1749428440.322,327.637,312.012,235.840,570.801,0.000,0
1749428440.326,331.055,301.758,250.977,578.125,0.000,0
1749428440.330,328.613,315.918,238.281,520.508,0.000,0
1749428440.334,368.164,332.031,258.301,543.945,0.000,0
1749428440.338,401.367,362.793,260.742,659.668,0.000,0
1749428440.342,376.465,379.883,290.527,615.723,0.000,0
1749428440.346,365.234,361.816,244.141,512.695,0.000,0
1749428440.350,364.258,400.391,107.422,489.258,0.000,0
1749428440.353,334.473,376.953,83.008,496.582,0.000,0
1749428440.357,354.004,315.918,111.328,419.434,0.000,0
1749428440.361,370.605,330.078,90.820,469.238,0.000,0
1749428440.365,327.637,298.340,125.488,568.359,0.000,0
1749428440.369,377.930,332.520,163.086,548.340,0.000,0
1749428440.373,440.430,331.055,161.133,542.969,0.000,0
1749428440.377,363.281,322.266,136.230,425.781,0.000,0
1749428440.381,345.703,308.105,120.117,393.066,0.000,0
1749428440.385,363.281,278.809,147.949,511.230,0.000,0
1749428440.389,355.469,287.109,166.504,462.891,0.000,0
1749428440.393,391.113,300.781,149.414,514.160,0.000,0
1749428440.397,328.125,270.996,141.113,516.602,0.000,0
1749428440.400,272.461,270.020,157.227,429.688,0.000,0
1749428440.404,272.949,287.109,163.086,351.074,0.000,0
1749428440.408,285.156,272.949,162.598,363.770,0.000,0
1749428440.412,384.277,251.953,163.574,396.484,0.000,0
1749428440.416,309.570,286.621,157.227,340.820,0.000,0
1749428440.420,381.836,299.316,184.570,387.695,0.000,0
1749428440.424,509.766,277.832,215.332,399.902,0.000,0
1749428440.428,403.809,296.875,204.590,270.996,0.000,0
1749428440.432,350.098,301.758,192.871,226.562,0.000,0
1749428440.436,327.637,297.852,199.707,191.406,0.000,0
1749428440.440,263.672,291.992,212.402,159.180,0.000,0
1749428440.443,206.543,300.781,221.680,108.398,0.000,0
1749428440.447,118.652,320.312,210.449,33.203,0.000,0
1749428440.451,20.508,312.988,217.285,-1.465,0.000,0
1749428440.455,63.965,273.926,243.652,-87.891,0.000,0
1749428440.459,59.570,291.504,205.566,-100.098,0.000,0
1749428440.463,16.602,322.754,208.496,-16.113,0.000,0
1749428440.467,14.160,286.133,228.516,-3.418,0.000,0
1749428440.471,88.379,249.512,231.934,101.074,0.000,0
1749428440.474,86.426,298.828,235.840,99.121,0.000,0
1749428440.479,9.277,305.664,208.496,-42.969,0.000,0
1749428440.483,78.613,259.766,209.473,-62.988,0.000,0
1749428440.486,116.699,280.273,209.473,-21.973,0.000,0
1749428440.490,98.145,250.000,250.488,126.953,0.000,0
1749428440.494,112.793,198.730,267.578,109.863,0.000,0
1749428440.498,168.457,281.738,232.910,88.867,0.000,0
1749428440.502,220.215,281.738,232.422,148.926,0.000,0
1749428440.506,182.617,270.020,224.609,98.633,0.000,0
1749428440.510,194.824,273.926,222.168,166.992,0.000,0
1749428440.514,208.984,230.469,232.910,105.957,0.000,0
1749428440.517,193.359,220.703,219.727,125.000,0.000,0
1749428440.521,202.637,264.160,163.574,274.414,0.000,0
1749428440.526,205.566,242.188,192.383,353.027,0.000,0
1749428440.529,215.332,194.824,205.078,353.516,0.000,0
1749428440.533,261.719,209.473,192.871,338.379,0.000,0
1749428440.537,275.879,186.523,187.500,314.941,0.000,0
1749428440.541,216.309,173.828,176.758,274.414,0.000,0
1749428440.545,200.684,183.105,149.414,177.246,0.000,0
1749428440.549,314.941,155.273,111.816,187.012,0.000,0
1749428440.553,334.473,117.676,139.160,376.953,0.000,0
1749428440.557,226.074,127.930,148.438,300.293,0.000,0
1749428440.560,213.379,139.160,116.699,38.086,0.000,0
1749428440.564,328.125,144.043,85.449,70.801,0.000,0
1749428440.568,316.895,122.559,132.324,429.688,0.000,0
1749428440.572,256.348,98.633,125.488,453.613,0.000,0
1749428440.576,264.648,111.816,107.422,238.281,0.000,0
1749428440.580,267.090,109.375,98.633,279.785,0.000,0
1749428440.584,260.742,130.859,106.934,355.469,0.000,0
1749428440.588,208.496,130.859,101.562,231.934,0.000,0
1749428440.592,250.977,73.730,89.355,213.379,0.000,0
1749428440.596,289.551,91.309,81.543,319.336,0.000,0
1749428440.599,274.414,90.332,94.727,285.645,0.000,0
1749428440.603,229.492,85.938,114.746,158.691,0.000,0
1749428440.607,189.941,83.984,89.355,184.570,0.000,0
1749428440.611,250.488,70.312,65.918,229.492,0.000,0
1749428440.615,263.672,73.242,74.707,286.621,0.000,0
1749428440.619,227.051,88.867,92.773,284.180,0.000,0
1749428440.623,232.422,85.938,54.688,121.582,0.000,0
1749428440.627,240.234,42.480,76.660,357.422,0.000,0
1749428440.631,123.535,46.875,91.309,347.656,0.000,0
1749428440.635,169.434,55.176,49.316,154.785,0.000,0
1749428440.639,199.219,67.383,54.688,248.535,0.000,0
1749428440.643,165.527,40.039,67.871,342.773,0.000,0
1749428440.646,190.918,-1.953,62.012,240.723,0.000,0
1749428440.650,198.730,-3.418,44.434,95.703,0.000,0
1749428440.654,229.492,0.977,56.641,259.766,0.000,0
1749428440.658,197.754,-16.602,79.590,416.016,0.000,0
1749428440.662,178.711,-46.387,46.875,247.070,0.000,0
1749428440.666,184.082,-34.180,16.602,198.730,0.000,0
1749428440.670,191.895,-59.570,77.637,347.168,0.000,0
1749428440.674,191.895,-126.953,70.312,284.668,0.000,0
1749428440.678,202.148,-145.508,26.855,199.707,0.000,0
1749428440.682,142.090,-138.184,28.320,249.512,0.000,0
1749428440.686,125.488,-151.855,53.223,276.855,0.000,0
1749428440.689,169.434,-157.715,59.570,218.750,0.000,0
1749428440.693,143.066,-132.324,31.738,205.078,0.000,0
1749428440.697,92.773,-122.559,27.344,225.098,0.000,0
1749428440.701,103.516,-118.164,48.828,221.680,0.000,0
1749428440.705,98.633,-80.078,38.086,189.453,0.000,0
1749428440.709,71.777,-114.258,41.504,185.547,0.000,0
1749428440.713,119.141,-117.188,38.086,158.691,0.000,0
1749428440.717,116.211,-83.496,28.809,155.762,0.000,0
1749428440.721,77.148,-83.496,36.621,167.969,0.000,0
1749428440.725,77.637,-85.449,7.812,90.820,0.000,0
1749428440.729,80.078,-101.562,13.184,155.273,0.000,0
1749428440.732,73.730,-91.309,25.879,225.586,0.000,0
1749428440.736,37.109,-84.473,20.508,173.828,0.000,0
1749428440.740,26.367,-95.215,21.973,158.691,0.000,0
1749428440.744,69.336,-94.727,25.879,171.387,0.000,0
1749428440.748,60.547,-79.102,24.902,154.297,0.000,0
1749428440.752,60.547,-69.824,24.414,168.945,0.000,0
1749428440.756,69.336,-64.453,25.879,160.645,0.000,0
1749428440.760,63.477,-56.641,14.648,118.652,0.000,0
1749428440.764,48.828,-64.941,23.926,169.434,0.000,0
1749428440.768,15.137,-56.641,33.691,178.711,0.000,0
1749428440.772,31.250,-59.082,40.527,156.250,0.000,0
1749428440.776,92.285,-56.641,32.715,168.945,0.000,0
1749428440.779,61.523,-36.133,18.555,151.367,0.000,0
1749428440.783,47.852,-43.945,26.367,143.066,0.000,0
1749428440.787,41.504,-75.195,30.762,136.230,0.000,0
1749428440.791,31.250,-47.852,20.020,125.488,0.000,0
1749428440.795,50.781,-49.805,7.324,117.676,0.000,0
1749428440.799,22.461,-83.984,-9.277,86.914,0.000,0
1749428440.803,20.020,-88.867,-16.602,75.684,0.000,0
1749428440.807,26.367,-73.242,-24.414,75.195,0.000,0
1749428440.811,-11.230,-79.102,-24.414,72.266,0.000,0
1749428440.815,-14.648,-85.449,-12.207,82.520,0.000,0
1749428440.819,3.906,-78.125,-7.812,76.660,0.000,0
1749428440.822,8.301,-64.941,-20.020,55.664,0.000,0
1749428440.826,6.348,-51.758,-19.531,44.434,0.000,0
1749428440.830,2.930,-60.547,-15.625,42.969,0.000,0
1749428440.834,11.230,-56.152,-27.832,24.902,0.000,0
1749428440.838,13.672,-51.758,-19.043,25.391,0.000,0
1749428440.842,0.977,-48.340,-15.625,33.691,0.000,0
1749428440.846,15.137,-53.711,-16.602,29.297,0.000,0
1749428440.850,14.160,-30.762,-13.184,51.758,0.000,0
1749428440.854,24.902,-34.180,2.930,95.215,0.000,0
1749428440.858,34.668,-47.363,3.418,92.773,0.000,0
1749428440.862,-30.762,-32.715,-5.859,57.617,0.000,0
1749428440.865,-15.137,-47.363,-0.488,60.547,0.000,0
1749428440.869,35.156,-39.062,-3.906,74.219,0.000,0
1749428440.873,16.602,-23.926,-4.395,42.480,0.000,0
1749428440.877,-9.766,-24.414,-5.859,25.879,0.000,0
1749428440.881,-15.625,-21.973,-5.371,41.016,0.000,0
1749428440.885,-3.418,-23.926,8.301,30.273,0.000,0
1749428440.889,27.344,-31.250,18.555,28.320,0.000,0
1749428440.893,53.223,-38.086,21.973,47.363,0.000,0
1749428440.896,41.992,-20.508,16.602,33.203,0.000,0
1749428440.901,3.906,3.906,5.859,9.277,0.000,0
1749428440.905,22.461,3.906,3.906,2.441,0.000,0
1749428440.908,55.176,-3.906,1.953,5.371,0.000,0
1749428440.912,25.879,-1.465,-3.418,2.930,0.000,0
1749428440.916,25.879,4.395,-6.348,-3.906,0.000,0
1749428440.920,21.973,6.836,-6.348,1.465,0.000,0
1749428440.924,6.348,4.883,-0.488,8.789,0.000,0
1749428440.928,25.391,2.930,1.953,24.414,0.000,0
1749428440.932,23.926,2.930,-2.441,35.645,0.000,0
1749428440.936,22.461,2.930,-4.395,40.527,0.000,0
1749428440.939,25.879,4.883,-6.348,35.156,0.000,0
1749428440.943,12.695,4.883,-7.324,15.137,0.000,0
1749428440.947,22.949,7.812,-7.324,14.160,0.000,0
1749428440.951,20.508,-2.930,-3.418,20.996,0.000,0
1749428440.955,10.254,-12.207,0.977,25.391,0.000,0
1749428440.959,12.207,-13.184,-2.441,23.438,0.000,0
1749428440.963,17.578,-8.301,-10.742,16.602,0.000,0
1749428440.967,6.348,-2.441,-10.254,18.066,0.000,0
1749428440.971,10.254,0.000,-1.953,22.949,0.000,0
1749428440.975,21.484,0.000,1.465,29.785,0.000,0
1749428440.979,26.855,-1.953,-1.465,19.043,0.000,0
1749428440.982,17.090,0.488,0.000,13.184,0.000,0
1749428440.986,24.902,-2.441,8.301,20.508,0.000,0
1749428440.990,54.199,2.441,7.812,8.301,0.000,0
1749428440.994,0.000,9.766,6.348,-1.953,0.000,0
1749428440.998,0.000,6.836,4.883,0.977,0.000,0
1749428441.002,0.000,1.953,5.371,7.812,0.000,0
1749428441.006,0.000,-3.906,11.230,9.277,0.000,0
1749428441.010,0.000,-2.441,9.277,3.418,0.000,0
1749428441.014,0.000,0.977,-2.930,-5.371,0.000,0
1749428441.018,0.000,-8.301,-2.441,-4.883,0.000,0
1749428441.021,0.000,-9.277,4.395,-2.441,0.000,0
1749428441.025,0.000,1.953,0.977,-11.719,0.000,0
1749428441.029,0.000,0.488,1.465,-21.973,0.000,0
1749428441.033,0.000,0.488,2.930,-10.742,0.000,0
1749428441.037,0.000,4.395,5.859,-1.953,0.000,0
1749428441.041,82.031,0.488,6.836,-8.789,0.000,0
1749428441.045,83.984,-7.324,-2.441,-19.043,0.000,0
1749428441.049,80.566,-11.719,-8.789,-16.602,0.000,0
1749428441.053,72.754,-13.672,-4.883,-5.371,0.000,0
1749428441.057,63.965,-14.648,-4.883,-4.883,0.000,0
1749428441.061,69.336,-9.766,-4.883,-4.883,0.000,0
1749428441.065,83.984,-0.977,-3.906,0.000,0.000,0
1749428441.068,83.496,-0.977,-10.254,-1.953,0.000,0
1749428441.072,62.988,1.465,-9.277,-5.859,0.000,0
1749428441.076,60.547,3.418,-7.324,-11.230,0.000,0
1749428441.080,66.406,-9.766,-7.812,-7.812,0.000,0
1749428441.084,70.801,-21.973,-4.883,-0.977,0.000,0
1749428441.088,63.477,-15.625,-6.348,-4.395,0.000,0
1749428441.092,47.363,-18.555,-12.207,-10.742,0.000,0
1749428441.096,52.246,-24.414,-10.742,-8.789,0.000,0
1749428441.100,67.871,-20.508,-13.184,-5.371,0.000,0
1749428441.104,58.105,-17.090,-11.719,-5.859,0.000,0
1749428441.108,51.758,-16.113,-3.906,0.488,0.000,0
1749428441.111,49.316,-15.137,-7.812,-4.883,0.000,0
1749428441.115,48.828,-14.160,-15.625,-8.301,0.000,0
1749428441.119,51.758,-19.043,-12.207,4.395,0.000,0
1749428441.123,49.805,-26.367,-7.324,5.371,0.000,0
1749428441.127,59.082,-27.344,-5.371,-1.953,0.000,0
1749428441.131,66.406,-20.508,-1.953,6.836,0.000,0
1749428441.135,54.688,-22.949,-2.441,5.371,0.000,0
1749428441.139,46.875,-23.438,-7.812,0.000,0.000,0
1749428441.143,49.316,-27.344,-18.066,-7.324,0.000,0
1749428441.147,54.199,-32.227,-22.461,-8.789,0.000,0
1749428441.151,68.359,-22.949,-16.602,-7.812,0.000,0
1749428441.155,74.219,-25.879,-9.277,-1.465,0.000,0
1749428441.158,53.223,-29.785,-12.695,-5.371,0.000,0
1749428441.162,47.363,-31.250,-20.020,-16.113,0.000,0
1749428441.166,62.012,-31.250,-18.066,-8.789,0.000,0
1749428441.170,56.641,-23.926,-13.184,-11.719,0.000,0
1749428441.174,41.992,-21.973,-13.184,-21.973,0.000,0
1749428441.178,35.645,-24.902,-18.555,-27.832,0.000,0
1749428441.182,31.738,-25.879,-20.508,-27.832,0.000,0
1749428441.186,43.457,-15.625,-12.695,-20.508,0.000,0
1749428441.190,54.688,-10.742,-8.301,-18.066,0.000,0
1749428441.194,40.039,-18.066,-14.160,-20.508,0.000,0
1749428441.198,34.668,-18.066,-21.484,-23.438,0.000,0
1749428441.201,20.020,-9.277,-18.555,-21.484,0.000,0
1749428441.205,15.625,-15.137,-14.160,-12.695,0.000,0
1749428441.209,22.461,-19.043,-16.602,-19.043,0.000,0
1749428441.213,4.883,-23.926,-25.391,-35.645,0.000,0
1749428441.217,8.301,-25.391,-25.391,-35.645,0.000,0
1749428441.221,23.926,-8.301,-16.602,-35.645,0.000,0
1749428441.225,22.949,-18.066,-20.508,-47.363,0.000,0
1749428441.229,12.207,-29.785,-29.297,-55.664,0.000,0
1749428441.233,11.719,-30.273,-28.320,-50.293,0.000,0
1749428441.237,1.465,-31.738,-28.320,-49.805,0.000,0
1749428441.241,-7.812,-26.367,-30.273,-54.688,0.000,0
1749428441.244,-9.766,-32.227,-33.203,-51.758,0.000,0
1749428441.248,-4.395,-30.273,-38.086,-48.828,0.000,0
1749428441.252,-11.230,-20.996,-40.527,-63.477,0.000,0
1749428441.256,-21.973,-28.320,-37.109,-63.965,0.000,0
1749428441.260,-38.086,-33.203,-42.969,-56.641,0.000,0
1749428441.264,-57.129,-32.227,-45.410,-79.102,0.000,0
1749428441.268,-56.152,-27.832,-35.156,-97.168,0.000,0
1749428441.272,-38.574,-28.809,-29.297,-95.703,0.000,0
1749428441.276,-19.531,-31.738,-33.203,-88.379,0.000,0
1749428441.280,-25.391,-29.785,-40.527,-94.727,0.000,0
1749428441.284,-36.621,-26.367,-40.527,-97.656,0.000,0
1749428441.287,-41.992,-15.625,-35.645,-82.031,0.000,0
1749428441.291,-46.875,-17.578,-36.621,-75.195,0.000,0
1749428441.295,-36.133,-19.043,-39.551,-81.543,0.000,0
1749428441.299,-47.363,-14.160,-33.691,-78.125,0.000,0
1749428441.303,-43.457,-20.996,-20.996,-59.082,0.000,0
1749428441.307,-9.277,-17.578,-20.508,-57.129,0.000,0
1749428441.311,-13.672,-12.695,-24.902,-65.430,0.000,0
1749428441.315,-19.531,-12.695,-22.949,-59.082,0.000,0
1749428441.318,-42.480,-20.996,-19.531,-52.734,0.000,0
1749428441.323,-36.621,-24.414,-18.066,-59.570,0.000,0
1749428441.326,-40.527,-17.090,-26.855,-83.984,0.000,0
1749428441.330,-56.641,-22.461,-27.832,-90.820,0.000,0
1749428441.334,-23.438,-40.039,-22.461,-78.125,0.000,0
1749428441.338,-48.340,-27.344,-23.926,-82.520,0.000,0
1749428441.342,-47.852,-6.836,-26.855,-79.102,0.000,0
1749428441.346,-23.926,-14.648,-31.738,-70.312,0.000,0
1749428441.350,-15.137,-30.273,-28.320,-48.340,0.000,0
1749428441.354,-4.883,-27.832,-16.113,-41.992,0.000,0
1749428441.357,-103.516,-22.949,-20.996,-56.641,0.000,0
1749428441.361,-123.047,-42.969,-26.855,-33.203,0.000,0
1749428441.365,-31.738,-35.645,-29.297,-35.645,0.000,0
1749428441.369,-61.523,-12.207,-24.414,-30.762,0.000,0
1749428441.373,-96.191,-17.578,-8.301,-13.672,0.000,0
1749428441.377,-97.168,-22.949,-11.719,-31.250,0.000,0
1749428441.381,-83.496,-23.438,-26.855,-61.035,0.000,0
1749428441.385,-47.363,-35.156,-31.250,-26.367,0.000,0
1749428441.389,-76.660,-37.109,-19.043,18.555,0.000,0
1749428441.393,-70.801,-15.137,-20.020,15.137,0.000,0
1749428441.397,-65.918,-13.672,-29.297,18.555,0.000,0
1749428441.400,-154.785,-18.066,-20.996,-13.672,0.000,0
1749428441.404,-140.625,-22.949,-23.926,-28.320,0.000,0
1749428441.408,-119.629,-31.738,-17.578,48.828,0.000,0
1749428441.412,-94.727,-18.066,-13.672,38.574,0.000,0
1749428441.416,-129.395,-11.719,-34.668,-9.766,0.000,0
1749428441.420,-51.758,-6.348,-28.809,38.086,0.000,0
1749428441.424,-39.062,-17.578,-12.207,65.918,0.000,0
1749428441.428,-115.723,-31.250,-42.969,-44.922,0.000,0
1749428441.432,-73.730,-21.973,-45.410,-25.391,0.000,0
1749428441.436,-10.742,-28.320,-7.324,105.957,0.000,0
1749428441.439,14.160,-16.113,-8.789,77.637,0.000,0
1749428441.443,-20.508,-19.043,-10.254,28.809,0.000,0
1749428441.447,-10.254,-22.949,-8.789,23.926,0.000,0
1749428441.451,30.762,-18.066,-14.648,33.691,0.000,0
1749428441.455,9.277,-24.414,-15.625,47.363,0.000,0
1749428441.459,-11.230,-19.043,-12.207,51.758,0.000,0
1749428441.463,26.855,-17.090,-23.926,18.555,0.000,0
1749428441.467,42.969,-20.996,-13.672,15.625,0.000,0
1749428441.471,57.617,0.488,-0.977,18.555,0.000,0
1749428441.475,14.648,12.207,-30.762,-30.762,0.000,0
1749428441.479,32.227,-9.277,-38.574,-3.906,0.000,0
1749428441.483,52.246,-53.711,-1.465,67.383,0.000,0
1749428441.486,3.906,-41.992,-10.254,44.922,0.000,0
1749428441.490,28.809,-6.836,-32.715,20.508,0.000,0
1749428441.494,36.133,-29.785,-23.438,19.043,0.000,0
1749428441.498,35.645,-34.668,-20.996,19.531,0.000,0
1749428441.502,70.801,-2.441,-20.996,16.113,0.000,0
1749428441.506,-24.902,-15.137,-14.648,3.418,0.000,0
1749428441.510,2.441,-35.156,-11.230,4.395,0.000,0
1749428441.514,69.824,-13.184,-22.949,6.348,0.000,0
1749428441.518,20.508,4.883,-28.320,-7.324,0.000,0
1749428441.522,-11.230,-13.672,-20.020,-3.906,0.000,0
1749428441.526,11.719,-24.414,-13.184,14.160,0.000,0
1749428441.529,55.176,-23.438,-15.137,5.371,0.000,0
1749428441.533,70.312,-42.969,-28.809,-18.066,0.000,0
1749428441.537,34.180,-22.949,-32.715,-13.672,0.000,0
1749428441.541,41.992,-20.020,-18.555,18.066,0.000,0
1749428441.545,27.344,-42.969,-9.766,2.930,0.000,0
1749428441.549,5.859,-34.180,-14.160,-16.113,0.000,0
1749428441.553,45.898,-22.461,-16.602,4.395,0.000,0
1749428441.557,34.180,-18.066,-18.555,2.930,0.000,0
1749428441.561,16.113,-13.672,-19.531,-21.973,0.000,0
1749428441.565,19.043,-26.367,-17.090,-11.230,0.000,0
1749428441.569,34.180,-20.996,-19.531,1.465,0.000,0
1749428441.572,53.223,-18.066,-17.090,9.766,0.000,0
1749428441.576,40.527,-12.695,-19.043,-2.441,0.000,0
1749428441.580,46.875,-36.133,-20.508,-18.555,0.000,0
1749428441.584,43.945,-45.410,-20.996,-17.578,0.000,0
1749428441.588,23.926,-1.953,-27.832,-21.973,0.000,0
1749428441.592,22.949,-7.812,-29.785,-19.043,0.000,0
1749428441.596,25.879,-23.926,-19.043,-3.906,0.000,0
1749428441.600,39.551,-32.715,-14.160,-2.441,0.000,0
1749428441.604,75.195,-28.320,-17.090,-7.324,0.000,0
1749428441.608,58.105,-7.324,-18.555,-10.254,0.000,0
1749428441.612,10.254,-21.484,-21.484,-28.320,0.000,0
1749428441.615,7.324,-28.320,-16.113,-33.691,0.000,0
1749428441.619,40.039,-11.230,-11.230,-12.207,0.000,0
1749428441.623,3.418,12.207,-16.113,-25.879,0.000,0
1749428441.627,-9.766,-29.297,-10.742,-30.273,0.000,0
1749428441.631,41.016,-37.109,-3.418,-12.207,0.000,0
1749428441.635,26.367,-5.859,-9.766,-24.414,0.000,0
1749428441.639,20.020,-26.367,-3.906,-23.438,0.000,0
1749428441.643,43.457,-23.438,1.465,-20.996,0.000,0
1749428441.646,38.086,-17.090,-8.789,-7.812,0.000,0
1749428441.651,28.809,-20.508,-17.090,-10.742,0.000,0
1749428441.655,24.414,-16.602,-19.043,-14.648,0.000,0
1749428441.658,19.531,-17.578,-13.184,-4.395,0.000,0
1749428441.662,23.926,-27.832,-17.090,-11.230,0.000,0
1749428441.666,36.621,-25.879,-16.602,-1.953,0.000,0
1749428441.670,18.555,-25.391,-10.254,5.371,0.000,0
1749428441.674,-1.465,-19.531,-18.066,4.883,0.000,0
1749428441.678,31.250,-14.160,-22.949,12.695,0.000,0
1749428441.682,29.785,-20.996,-20.508,5.371,0.000,0
1749428441.686,18.066,-25.391,-19.043,1.953,0.000,0
1749428441.689,29.297,-22.461,-22.949,2.441,0.000,0
1749428441.693,38.574,-25.879,-30.273,8.301,0.000,0
1749428441.697,26.855,-20.996,-36.133,-5.859,0.000,0
1749428441.701,20.996,-22.461,-26.855,-20.020,0.000,0
1749428441.705,12.695,-21.973,-23.926,-28.809,0.000,0
1749428441.709,30.762,-15.625,-28.320,-26.367,0.000,0
1749428441.713,32.227,-22.461,-24.902,-22.461,0.000,0
1749428441.717,20.996,-17.578,-23.438,-16.113,0.000,0
1749428441.721,7.812,3.418,-24.902,-36.133,0.000,0
1749428441.725,-11.719,-7.812,-24.902,-53.223,0.000,0
1749428441.729,9.277,-25.391,-23.926,-39.062,0.000,0
1749428441.732,27.344,-12.207,-21.973,-34.668,0.000,0
1749428441.736,2.441,-18.555,-19.043,-23.926,0.000,0
1749428441.740,3.418,-20.996,-17.090,-26.367,0.000,0
1749428441.744,15.137,-5.859,-13.672,-36.621,0.000,0
1749428441.748,4.395,-9.277,-14.160,-46.387,0.000,0
1749428441.752,1.465,-9.277,-13.672,-51.270,0.000,0
1749428441.756,-19.043,7.324,-15.137,-54.688,0.000,0
1749428441.760,-39.551,4.883,-14.648,-63.477,0.000,0
1749428441.764,-41.992,0.000,-11.230,-73.242,0.000,0
1749428441.768,-55.176,1.953,-7.812,-78.613,0.000,0
1749428441.771,-77.637,8.301,-8.789,-86.914,0.000,0
1749428441.775,-94.727,16.602,-18.066,-110.352,0.000,0
1749428441.779,-111.816,29.785,-29.785,-140.625,0.000,0
1749428441.783,-156.738,34.180,-38.086,-172.852,0.000,0
1749428441.787,-190.918,40.039,-32.227,-181.641,0.000,0
1749428441.791,-197.754,58.594,-18.066,-203.613,0.000,0
1749428441.795,-207.520,61.523,-13.184,-238.770,0.000,0
1749428441.799,-227.539,60.059,-8.789,-250.488,0.000,0
1749428441.803,-245.605,62.988,-0.977,-255.859,0.000,0
1749428441.807,-258.789,55.176,8.789,-255.371,0.000,0
1749428441.810,-259.766,53.711,12.695,-249.023,0.000,0
1749428441.814,-258.301,54.199,14.648,-241.699,0.000,0
1749428441.818,-258.789,61.523,19.043,-226.074,0.000,0
1749428441.822,-226.074,64.453,21.973,-232.422,0.000,0
1749428441.826,-214.355,62.012,27.344,-251.953,0.000,0
1749428441.830,-228.516,72.754,26.855,-242.188,0.000,0
1749428441.834,-208.496,114.746,21.484,-229.980,0.000,0
1749428441.838,-183.105,166.504,29.297,-195.312,0.000,0
1749428441.842,-182.617,184.570,35.645,-180.664,0.000,0
1749428441.846,-169.922,184.570,25.879,-194.336,0.000,0
1749428441.850,-175.781,191.895,22.949,-192.871,0.000,0
1749428441.854,-172.852,187.500,31.250,-176.758,0.000,0
1749428441.857,-142.090,157.227,29.785,-168.945,0.000,0
1749428441.861,-129.395,167.480,10.254,-177.246,0.000,0
1749428441.865,-134.766,177.734,4.883,-176.758,0.000,0
1749428441.869,-149.414,148.926,15.625,-161.133,0.000,0
1749428441.873,-144.043,149.902,14.648,-156.738,0.000,0
1749428441.877,-120.117,165.527,13.672,-158.203,0.000,0
1749428441.881,-112.793,150.879,8.789,-154.297,0.000,0
1749428441.885,-116.211,162.598,0.977,-158.203,0.000,0
1749428441.889,-119.141,171.387,1.465,-157.715,0.000,0
1749428441.893,-119.141,166.016,3.906,-148.438,0.000,0
1749428441.897,-121.094,158.691,4.883,-147.949,0.000,0
1749428441.900,-118.652,168.945,-3.418,-158.691,0.000,0
1749428441.904,-111.816,204.102,-11.719,-157.227,0.000,0
1749428441.908,-123.047,242.676,-19.043,-161.621,0.000,0
1749428441.912,-131.348,248.535,-20.996,-168.945,0.000,0
1749428441.916,-98.633,331.543,-15.137,-168.945,0.000,0
1749428441.920,-83.496,259.277,3.906,-144.531,0.000,0
1749428441.924,-104.492,152.832,6.348,-145.508,0.000,0
1749428441.928,-112.305,232.910,-11.719,-168.945,0.000,0
1749428441.932,-113.770,251.465,-26.367,-167.969,0.000,0
1749428441.936,-106.445,255.371,-28.809,-190.430,0.000,0
1749428441.940,-113.770,268.555,-25.391,-218.262,0.000,0
1749428441.943,-99.121,291.992,-22.949,-212.402,0.000,0
1749428441.947,-75.684,303.711,-27.832,-208.496,0.000,0
1749428441.951,-67.383,326.172,-26.855,-192.383,0.000,0
1749428441.955,-61.035,354.980,-22.461,-178.711,0.000,0
1749428441.959,-51.758,363.770,-25.391,-170.898,0.000,0
1749428441.963,-30.762,361.328,-28.320,-160.645,0.000,0
1749428441.967,-21.973,358.398,-35.156,-156.738,0.000,0
1749428441.971,-20.996,349.121,-35.645,-155.762,0.000,0
1749428441.975,-17.578,335.938,-33.691,-154.785,0.000,0
1749428441.979,-20.508,314.453,-29.297,-138.184,0.000,0
1749428441.983,-5.859,291.504,-21.973,-116.211,0.000,0
1749428441.986,8.789,277.832,-19.531,-105.957,0.000,0
1749428441.990,-8.301,261.230,-16.602,-96.191,0.000,0
1749428441.994,-59.570,237.793,-23.438,-91.797,0.000,0
1749428441.998,-97.168,208.008,-25.879,-87.891,0.000,0
1749428442.002,-76.172,193.848,-23.926,-72.266,0.000,0
1749428442.006,-41.992,176.758,-27.344,-50.781,0.000,0
1749428442.010,-34.668,152.832,-31.738,-51.270,0.000,0
1749428442.014,-32.715,125.488,-37.109,-46.387,0.000,0
1749428442.018,-12.695,104.980,-42.969,-19.531,0.000,0
1749428442.021,-2.441,97.168,-40.039,-5.371,0.000,0
1749428442.026,19.043,79.102,-38.086,12.695,0.000,0
1749428442.029,29.785,64.453,-46.387,26.367,0.000,0
1749428442.033,35.645,57.129,-52.246,24.902,0.000,0
1749428442.037,63.965,46.387,-50.781,35.645,0.000,0
1749428442.041,86.426,30.273,-51.758,50.293,0.000,0
1749428442.045,110.352,10.254,-49.805,57.617,0.000,0
1749428442.049,125.000,-7.812,-50.293,71.289,0.000,0
1749428442.053,140.625,-20.996,-53.223,83.496,0.000,0
1749428442.057,161.621,-29.297,-60.059,83.496,0.000,0
1749428442.060,166.504,-29.785,-66.895,85.449,0.000,0
1749428442.064,169.434,-32.715,-62.500,88.867,0.000,0
1749428442.068,166.504,-38.086,-63.965,95.215,0.000,0
1749428442.072,167.480,-41.504,-70.312,102.051,0.000,0
1749428442.076,165.527,-47.852,-77.148,93.262,0.000,0
1749428442.080,169.434,-51.758,-80.566,91.797,0.000,0
1749428442.084,159.180,-53.223,-76.660,102.051,0.000,0
1749428442.088,145.996,-57.617,-78.613,103.027,0.000,0
1749428442.092,146.973,-66.406,-79.102,96.191,0.000,0
1749428442.096,133.789,-68.848,-76.172,96.191,0.000,0
1749428442.100,135.254,-69.824,-75.684,104.004,0.000,0
1749428442.103,148.438,-73.730,-75.195,103.027,0.000,0
1749428442.107,152.832,-79.590,-75.684,98.145,0.000,0
1749428442.111,134.766,-84.961,-74.219,93.750,0.000,0
1749428442.115,125.977,-86.426,-75.195,90.820,0.000,0
1749428442.119,136.719,-87.402,-74.219,101.074,0.000,0
1749428442.123,136.230,-83.984,-76.660,98.145,0.000,0
1749428442.127,122.070,-87.891,-78.613,83.984,0.000,0
1749428442.131,121.582,-97.168,-75.684,76.660,0.000,0
1749428442.135,126.953,-103.027,-75.684,77.637,0.000,0
1749428442.139,116.211,-106.934,-70.312,79.102,0.000,0
1749428442.143,100.586,-107.910,-68.848,80.078,0.000,0
1749428442.146,98.633,-106.445,-73.242,72.754,0.000,0
1749428442.150,96.680,-100.586,-65.918,70.312,0.000,0
1749428442.154,84.473,-87.891,-64.941,70.801,0.000,0
1749428442.158,92.285,-87.402,-66.895,66.895,0.000,0
1749428442.162,88.379,-97.168,-62.012,71.289,0.000,0
1749428442.166,75.195,-94.727,-57.617,71.289,0.000,0
1749428442.170,70.801,-92.773,-57.617,65.430,0.000,0
1749428442.174,57.129,-94.238,-57.129,45.410,0.000,0
1749428442.178,53.223,-101.074,-55.176,23.926,0.000,0
1749428442.182,52.734,-108.398,-55.176,15.625,0.000,0
1749428442.185,40.527,-125.488,-53.711,16.113,0.000,0
1749428442.189,28.809,-158.691,-52.734,16.602,0.000,0
1749428442.193,24.414,-195.312,-55.664,-4.395,0.000,0
1749428442.197,2.930,-192.871,-60.547,-11.230,0.000,0
1749428442.201,6.348,-181.641,-55.176,0.000,0.000,0
1749428442.205,23.438,-212.891,-48.340,-8.789,0.000,0
1749428442.209,8.301,-235.352,-50.293,-10.254,0.000,0
1749428442.213,5.371,-227.051,-51.270,-1.953,0.000,0
1749428442.217,6.348,-219.727,-50.293,5.859,0.000,0
1749428442.221,1.953,-211.914,-52.734,11.719,0.000,0
1749428442.225,-4.395,-201.172,-50.293,11.230,0.000,0
1749428442.228,0.488,-196.289,-52.734,1.953,0.000,0
1749428442.232,15.625,-198.242,-50.781,-1.953,0.000,0
1749428442.236,28.320,-190.918,-44.922,0.977,0.000,0
1749428442.240,23.926,-177.734,-47.852,-0.977,0.000,0
1749428442.244,20.020,-166.992,-50.781,-3.906,0.000,0
1749428442.248,19.043,-164.551,-48.340,-6.348,0.000,0
1749428442.252,15.137,-167.969,-44.434,3.906,0.000,0
1749428442.256,3.906,-158.203,-42.969,13.184,0.000,0
1749428442.260,-1.953,-151.855,-46.387,-9.766,0.000,0
1749428442.264,3.906,-143.555,-50.781,-31.738,0.000,0
1749428442.268,8.789,-128.418,-52.734,-23.926,0.000,0
1749428442.272,6.836,-130.859,-53.223,-20.508,0.000,0
1749428442.275,-8.789,-127.441,-54.199,-29.297,0.000,0
1749428442.279,-10.254,-128.906,-53.223,-35.156,0.000,0
1749428442.283,8.789,-143.555,-48.340,-28.320,0.000,0
1749428442.287,4.395,-156.738,-44.922,-29.785,0.000,0
1749428442.291,-4.395,-172.363,-40.527,-25.879,0.000,0
1749428442.295,-8.301,-169.434,-36.133,-24.414,0.000,0
1749428442.299,-4.395,-168.457,-34.668,-25.879,0.000,0
1749428442.303,2.441,-179.688,-38.086,-18.555,0.000,0
1749428442.307,-8.789,-188.477,-37.598,-18.066,0.000,0
1749428442.311,-19.531,-189.453,-36.621,-27.344,0.000,0
1749428442.315,-3.418,-183.594,-40.527,-32.227,0.000,0
1749428442.318,5.859,-177.246,-35.645,-34.668,0.000,0
1749428442.322,10.742,-169.922,-33.691,-24.414,0.000,0
1749428442.326,3.418,-169.434,-34.180,-19.531,0.000,0
1749428442.330,-3.418,-176.270,-32.715,-21.973,0.000,0
1749428442.334,2.930,-168.457,-32.227,-12.207,0.000,0
1749428442.338,-0.488,-152.832,-32.227,-15.625,0.000,0
1749428442.342,-4.883,-145.020,-35.645,-23.926,0.000,0
1749428442.346,-6.836,-129.883,-36.621,-33.691,0.000,0
1749428442.349,-12.207,-166.504,-37.598,-39.551,0.000,0
1749428442.354,-13.672,-256.348,-33.203,-38.086,0.000,0
1749428442.358,-11.719,-295.410,-31.738,-30.273,0.000,0
1749428442.361,-17.090,-308.105,-33.691,-29.297,0.000,0
1749428442.365,-24.414,-310.547,-28.809,-28.809,0.000,0
1749428442.369,-22.461,-315.430,-24.414,-24.414,0.000,0
1749428442.373,-12.207,-316.406,-25.391,-17.090,0.000,0
1749428442.377,-21.973,-308.105,-29.297,-44.434,0.000,0
1749428442.381,-27.344,-306.152,-30.762,-57.129,0.000,0
1749428442.385,-25.879,-296.387,-35.156,-35.645,0.000,0
1749428442.389,-21.484,-274.902,-26.855,-24.414,0.000,0
1749428442.392,-14.648,-259.277,-22.461,-19.043,0.000,0
1749428442.396,-20.020,-254.883,-32.715,-35.156,0.000,0
1749428442.400,-8.789,-250.488,-26.367,-27.344,0.000,0
1749428442.404,-11.719,-248.535,-18.555,-20.996,0.000,0
1749428442.408,-33.691,-242.188,-17.578,-20.996,0.000,0
1749428442.412,-27.832,-232.910,-20.020,-23.438,0.000,0
1749428442.416,-42.969,-229.492,-25.391,-39.062,0.000,0
1749428442.420,-51.270,-217.285,-21.484,-45.898,0.000,0
1749428442.424,-17.090,-192.871,-16.113,-39.551,0.000,0
1749428442.428,-21.973,-181.152,-18.066,-21.973,0.000,0
1749428442.432,-45.410,-176.270,-17.090,-37.598,0.000,0
1749428442.435,-48.828,-175.781,-17.090,-57.129,0.000,0
1749428442.439,-36.133,-166.016,-14.160,-31.250,0.000,0
1749428442.443,-55.176,-157.227,-18.066,-30.762,0.000,0
1749428442.447,-56.641,-157.715,-24.902,-38.086,0.000,0
1749428442.451,-52.246,-153.809,-17.090,-15.625,0.000,0
1749428442.455,-72.266,-150.391,-13.184,-17.578,0.000,0
1749428442.459,-72.754,-142.578,-16.113,-20.508,0.000,0
1749428442.463,-71.777,-132.324,-25.879,-49.316,0.000,0
1749428442.467,-73.242,-129.395,-20.996,-44.434,0.000,0
1749428442.471,-67.383,-122.070,-9.277,33.203,0.000,0
1749428442.475,-42.480,-118.652,-25.879,56.152,0.000,0
1749428442.478,-46.387,-119.141,-26.367,39.062,0.000,0
1749428442.482,-50.781,-107.422,-32.227,19.043,0.000,0
1749428442.486,-36.621,-106.934,-30.762,56.152,0.000,0
1749428442.490,-42.969,-106.934,-18.066,93.750,0.000,0
1749428442.494,-66.406,-104.980,-21.973,52.734,0.000,0
1749428442.498,-39.551,-89.844,-29.785,27.832,0.000,0
1749428442.502,-45.410,-79.590,-29.785,27.344,0.000,0
1749428442.506,-43.457,-103.516,-27.832,53.223,0.000,0
1749428442.510,-25.879,-97.168,-20.020,72.754,0.000,0
1749428442.514,-39.062,-75.195,-29.785,50.293,0.000,0
1749428442.517,-80.078,-91.309,-34.180,35.156,0.000,0
1749428442.521,-61.035,-92.285,-21.973,36.621,0.000,0
1749428442.525,-17.090,-71.777,-39.062,-18.555,0.000,0
1749428442.529,-13.184,-84.961,-42.480,6.836,0.000,0
1749428442.533,-11.230,-97.168,-21.973,91.797,0.000,0
1749428442.537,-31.738,-71.289,-25.391,53.223,0.000,0
1749428442.541,-17.090,-70.312,-16.113,57.617,0.000,0
1749428442.545,-15.625,-77.148,-18.066,52.246,0.000,0
1749428442.549,0.000,-73.242,-27.832,36.621,0.000,0
1749428442.553,-19.531,-73.242,-14.160,32.227,0.000,0
1749428442.556,-52.734,-67.871,-20.020,-0.488,0.000,0
1749428442.560,-3.906,-62.988,-25.391,23.438,0.000,0
1749428442.564,-25.879,-62.012,-20.996,43.457,0.000,0
1749428442.568,-56.152,-67.871,-12.695,32.715,0.000,0
1749428442.572,-60.059,-63.477,-16.113,44.434,0.000,0
1749428442.576,-66.406,-58.594,-19.043,57.129,0.000,0
1749428442.580,-55.176,-57.129,-13.184,45.898,0.000,0
1749428442.584,-79.102,-56.152,-12.695,20.020,0.000,0
1749428442.588,-122.559,-67.871,-7.324,8.301,0.000,0
1749428442.592,-129.395,-70.801,-9.277,12.695,0.000,0
1749428442.596,-41.504,-54.688,-12.207,23.926,0.000,0
1749428442.600,-52.246,-58.594,-11.719,15.625,0.000,0
1749428442.603,-92.285,-60.547,-9.766,-8.789,0.000,0
1749428442.607,-40.527,-46.875,-10.742,-14.160,0.000,0
1749428442.611,-37.598,-56.152,-15.137,-26.367,0.000,0
1749428442.615,-74.219,-57.129,-28.320,-36.621,0.000,0
1749428442.619,-47.852,-38.086,-29.297,-7.812,0.000,0
1749428442.623,-26.855,-49.316,-23.926,-24.414,0.000,0
1749428442.627,-29.297,-60.547,-30.273,-61.035,0.000,0
1749428442.631,-12.207,-53.711,-13.184,-8.301,0.000,0
1749428442.635,-39.062,-40.039,-1.953,13.672,0.000,0
1749428442.639,-24.414,-44.434,-11.719,-10.742,0.000,0
1749428442.643,-15.137,-30.762,-14.648,-28.809,0.000,0
1749428442.646,-25.879,-26.367,-15.137,-35.156,0.000,0
1749428442.650,25.391,-49.805,-21.973,-21.484,0.000,0
1749428442.654,8.301,-50.293,-15.625,-36.133,0.000,0
1749428442.658,44.434,-54.199,-20.508,-42.969,0.000,0
1749428442.662,87.402,-34.180,-27.344,-23.926,0.000,0
1749428442.666,77.637,-36.133,-20.508,-19.043,0.000,0
1749428442.670,103.027,-46.875,-16.602,-16.113,0.000,0
1749428442.674,90.332,-26.855,-19.043,-33.203,0.000,0
1749428442.678,53.711,-26.367,-23.438,-59.082,0.000,0
1749428442.682,81.543,-42.969,-14.648,-42.480,0.000,0
1749428442.686,108.887,-41.504,-23.438,-31.738,0.000,0
1749428442.689,64.453,-53.711,-23.438,-42.480,0.000,0
1749428442.693,27.344,-50.293,-22.949,-43.945,0.000,0
1749428442.697,50.781,-34.668,-34.668,-51.758,0.000,0
1749428442.701,52.246,-38.574,-30.273,-52.246,0.000,0
1749428442.705,53.711,-41.504,-29.785,-75.195,0.000,0
1749428442.709,74.707,-41.504,-30.762,-95.215,0.000,0
1749428442.713,84.473,-46.387,-24.414,-62.500,0.000,0
1749428442.717,108.887,-52.734,-22.461,-43.457,0.000,0
1749428442.721,84.961,-53.711,-30.762,-48.828,0.000,0
1749428442.724,81.543,-49.805,-25.879,-38.574,0.000,0
1749428442.729,102.539,-58.105,-19.043,-32.227,0.000,0
1749428442.732,73.730,-50.781,-26.367,-36.621,0.000,0
1749428442.736,73.730,-53.711,-12.695,-28.320,0.000,0
1749428442.740,75.684,-60.547,-16.602,-32.715,0.000,0
1749428442.744,61.523,-33.691,-36.133,-20.996,0.000,0
1749428442.748,70.801,-33.691,-32.227,-6.836,0.000,0
1749428442.752,89.844,-39.062,-30.273,-11.719,0.000,0
1749428442.756,52.734,-46.875,-24.414,-23.438,0.000,0
1749428442.760,65.918,-52.734,-19.043,-13.184,0.000,0
1749428442.764,100.586,-37.598,-20.508,-4.395,0.000,0
1749428442.767,76.660,-28.320,-20.508,0.000,0.000,0
1749428442.771,40.527,-32.227,-14.648,4.395,0.000,0
1749428442.775,49.805,-26.855,-10.742,-11.230,0.000,0
1749428442.779,86.914,-49.805,-16.602,-20.996,0.000,0
1749428442.783,69.824,-37.598,-28.320,-36.133,0.000,0
1749428442.787,34.180,-26.855,-34.180,-41.016,0.000,0
1749428442.791,28.809,-46.387,-33.203,-25.391,0.000,0
1749428442.795,41.504,-56.641,-27.344,-6.836,0.000,0
1749428442.799,51.758,-43.457,-23.438,-26.367,0.000,0
1749428442.803,51.270,-28.320,-26.855,-47.363,0.000,0
1749428442.806,48.828,-23.438,-38.086,-42.969,0.000,0
1749428442.810,38.574,-23.926,-44.434,-47.363,0.000,0
1749428442.814,33.203,-32.715,-36.621,-39.062,0.000,0
1749428442.818,30.762,-47.852,-29.297,-33.203,0.000,0
1749428442.822,29.785,-47.363,-29.297,-34.668,0.000,0
1749428442.826,20.508,-41.992,-24.414,-34.180,0.000,0
1749428442.830,-31.250,-28.809,-23.438,-37.109,0.000,0
1749428442.834,-8.789,-36.133,-18.555,-44.434,0.000,0
1749428442.838,19.531,-39.551,-15.625,-41.504,0.000,0
1749428442.842,-2.930,-25.879,-24.414,-39.062,0.000,0
1749428442.846,-3.906,-34.180,-29.785,-50.293,0.000,0
1749428442.849,-16.113,-35.645,-32.227,-47.363,0.000,0
1749428442.853,-23.438,-33.691,-32.227,-45.410,0.000,0
1749428442.857,-23.438,-24.902,-31.250,-53.711,0.000,0
1749428442.861,-12.695,-22.949,-28.320,-55.664,0.000,0
1749428442.865,-22.949,-45.410,-17.578,-43.457,0.000,0
1749428442.869,-22.949,-37.109,-17.578,-39.062,0.000,0
1749428442.873,-12.695,-13.672,-22.949,-44.922,0.000,0
1749428442.877,-22.461,-32.715,-22.949,-49.316,0.000,0
1749428442.881,-2.441,-26.855,-32.227,-57.129,0.000,0
1749428442.885,-4.883,-16.602,-29.785,-51.270,0.000,0
1749428442.889,-17.090,-28.809,-23.926,-52.246,0.000,0
1749428442.892,-14.648,-33.203,-27.832,-60.547,0.000,0
1749428442.896,-9.277,-21.973,-23.926,-56.152,0.000,0
1749428442.900,0.977,-20.996,-18.555,-48.828,0.000,0
1749428442.904,-1.953,-20.996,-16.113,-46.875,0.000,0
1749428442.908,12.207,-15.625,-20.508,-56.152,0.000,0
1749428442.912,-15.137,0.977,-32.715,-74.219,0.000,0
1749428442.916,-7.324,-18.555,-28.809,-67.871,0.000,0
1749428442.920,0.977,-33.691,-24.414,-47.363,0.000,0
1749428442.924,-1.465,-11.230,-26.855,-58.105,0.000,0
1749428442.928,-34.180,-11.719,-31.738,-79.102,0.000,0
1749428442.931,-38.086,-9.766,-34.180,-79.590,0.000,0
1749428442.935,15.137,-17.578,-25.879,-67.383,0.000,0
1749428442.939,5.859,-16.602,-23.438,-68.359,0.000,0
1749428442.943,-40.039,-26.367,-30.762,-79.102,0.000,0
1749428442.947,-57.617,-36.133,-37.598,-83.984,0.000,0
1749428442.951,-9.277,-23.926,-30.762,-63.965,0.000,0
1749428442.955,19.531,-30.762,-28.809,-35.156,0.000,0
1749428442.959,1.953,-26.367,-33.691,-40.039,0.000,0
1749428442.963,-32.227,-21.973,-37.598,-71.777,0.000,0
1749428442.967,-21.484,-21.973,-31.250,-80.078,0.000,0
1749428442.971,3.418,-11.719,-26.855,-78.125,0.000,0
1749428442.974,2.441,-31.250,-27.344,-65.430,0.000,0
1749428442.978,-20.020,-41.016,-27.832,-60.547,0.000,0
1749428442.982,-53.223,-8.789,-33.203,-77.148,0.000,0
1749428442.986,-37.598,-10.254,-31.250,-74.219,0.000,0
1749428442.990,-12.207,-54.199,-20.020,-60.059,0.000,0
1749428442.994,-43.457,-34.668,-27.832,-71.777,0.000,0
1749428442.998,-74.707,-17.578,-32.227,-77.148,0.000,0
1749428443.002,-26.367,-26.367,-26.367,-69.336,0.000,0
1749428443.006,-7.812,-24.902,-27.832,-65.918,0.000,0
1749428443.010,-36.621,-23.438,-29.297,-69.824,0.000,0
1749428443.014,-28.320,-26.855,-26.367,-72.754,0.000,0
1749428443.018,-34.180,-32.715,-21.484,-65.430,0.000,0
1749428443.021,-62.988,-21.484,-28.320,-70.801,0.000,0
1749428443.025,-57.617,-25.879,-29.297,-81.055,0.000,0
1749428443.029,-36.621,-23.438,-22.461,-81.543,0.000,0
1749428443.033,-40.039,-19.531,-19.043,-72.266,0.000,0
1749428443.037,-72.266,-21.484,-17.578,-72.754,0.000,0
1749428443.041,-73.730,-26.855,-16.113,-74.707,0.000,0
1749428443.045,-62.988,-23.438,-19.043,-88.867,0.000,0
1749428443.049,-83.008,-7.324,-18.555,-105.469,0.000,0
1749428443.052,-69.824,-17.090,-12.207,-98.145,0.000,0
1749428443.057,-94.238,-0.977,-16.602,-118.652,0.000,0
1749428443.061,-125.488,-2.930,-13.184,-128.418,0.000,0
1749428443.064,-75.684,-10.742,-1.465,-116.699,0.000,0
1749428443.068,-110.840,14.648,1.953,-141.113,0.000,0
1749428443.072,-158.691,21.484,10.742,-159.668,0.000,0
1749428443.076,-154.785,22.461,17.090,-164.062,0.000,0
1749428443.080,-145.508,1.953,21.484,-165.527,0.000,0
1749428443.084,-154.297,15.625,23.438,-182.617,0.000,0
1749428443.088,-166.504,27.832,30.273,-197.754,0.000,0
1749428443.092,-184.570,31.738,28.320,-205.078,0.000,0
1749428443.095,-214.355,45.410,21.973,-224.121,0.000,0
1749428443.099,-195.312,13.672,31.738,-211.426,0.000,0
1749428443.104,-189.941,18.066,36.133,-197.754,0.000,0
1749428443.107,-210.938,30.762,30.273,-199.707,0.000,0
1749428443.111,-199.219,30.762,17.090,-214.355,0.000,0
1749428443.115,-191.895,20.996,13.184,-209.473,0.000,0
1749428443.119,-179.688,8.789,18.555,-190.918,0.000,0
1749428443.123,-184.082,16.113,17.578,-185.547,0.000,0
1749428443.127,-166.992,8.789,11.230,-171.875,0.000,0
1749428443.131,-136.719,-2.441,0.488,-160.645,0.000,0
1749428443.135,-132.812,1.465,-5.371,-146.484,0.000,0
1749428443.138,-122.559,0.000,-2.930,-122.559,0.000,0
1749428443.142,-109.863,-16.602,-4.883,-105.957,0.000,0
1749428443.146,-132.812,-20.508,-14.160,-96.680,0.000,0
1749428443.150,-151.855,-13.184,-23.438,-96.191,0.000,0
1749428443.154,-140.625,-15.137,-30.762,-93.262,0.000,0
1749428443.158,-133.789,-33.691,-31.738,-75.195,0.000,0
1749428443.162,-112.305,-23.926,-39.062,-67.383,0.000,0
1749428443.166,-125.000,-20.020,-53.223,-61.523,0.000,0
1749428443.170,-107.422,-40.527,-49.316,-37.598,0.000,0
1749428443.174,-77.148,-47.363,-46.875,-28.809,0.000,0
1749428443.178,-66.895,-46.387,-54.199,-19.531,0.000,0
1749428443.181,-51.270,-34.180,-62.012,-26.367,0.000,0
1749428443.185,-54.199,-40.039,-68.359,-52.734,0.000,0
1749428443.189,-29.785,-53.223,-63.965,-36.133,0.000,0
1749428443.193,-30.762,-52.246,-62.500,-18.555,0.000,0
1749428443.197,-40.039,-56.152,-66.406,-14.648,0.000,0
1749428443.201,-26.367,-53.711,-62.988,-9.277,0.000,0
1749428443.205,-14.648,-60.547,-58.594,2.441,0.000,0
1749428443.209,-14.648,-66.895,-66.406,12.695,0.000,0
1749428443.213,-2.930,-64.453,-79.102,4.395,0.000,0
1749428443.217,-11.230,-64.941,-77.637,-1.953,0.000,0
1749428443.221,-14.648,-49.805,-69.336,2.930,0.000,0
1749428443.224,11.230,-46.875,-70.801,9.277,0.000,0
1749428443.228,-5.371,-60.547,-77.637,9.277,0.000,0
1749428443.232,-11.230,-62.988,-75.195,10.742,0.000,0
1749428443.236,14.648,-60.547,-69.824,21.973,0.000,0
1749428443.240,7.812,-57.617,-68.848,31.250,0.000,0
1749428443.244,8.301,-60.547,-72.266,25.391,0.000,0
1749428443.248,0.977,-59.082,-80.078,5.371,0.000,0
1749428443.252,-26.855,-67.383,-76.172,9.277,0.000,0
1749428443.256,-6.348,-63.477,-69.336,28.809,0.000,0
1749428443.260,-6.836,-62.988,-70.801,19.531,0.000,0
1749428443.263,-0.977,-84.961,-67.871,-3.418,0.000,0
1749428443.267,31.738,-70.801,-66.406,-0.488,0.000,0
1749428443.271,-3.906,-68.848,-69.824,3.418,0.000,0
1749428443.275,-16.113,-85.938,-68.359,-1.953,0.000,0
1749428443.279,2.441,-72.266,-71.777,-5.859,0.000,0
1749428443.283,-0.977,-61.035,-66.895,-0.977,0.000,0
1749428443.287,-3.906,-64.453,-56.641,4.395,0.000,0
1749428443.291,-3.906,-51.270,-60.059,-3.906,0.000,0
1749428443.295,12.207,-62.988,-64.941,-7.812,0.000,0
1749428443.299,1.465,-73.730,-61.035,0.977,0.000,0
1749428443.303,-16.602,-66.406,-56.152,11.719,0.000,0
1749428443.306,0.000,-56.641,-56.152,8.301,0.000,0
1749428443.310,22.949,-41.504,-62.500,-10.254,0.000,0
1749428443.314,-9.277,-54.688,-63.965,-6.348,0.000,0
1749428443.318,-17.578,-62.988,-50.293,5.371,0.000,0
1749428443.322,-1.465,-55.176,-49.316,-3.906,0.000,0
1749428443.326,-17.578,-55.664,-55.176,-13.184,0.000,0
1749428443.330,-31.738,-50.293,-55.664,-12.207,0.000,0
1749428443.334,-27.344,-51.270,-54.199,-14.648,0.000,0
1749428443.338,-0.977,-57.129,-50.293,-16.602,0.000,0
1749428443.342,-16.602,-51.270,-53.223,-29.785,0.000,0
1749428443.346,-34.668,-58.105,-49.805,-31.250,0.000,0
1749428443.349,-18.066,-62.012,-47.852,-16.113,0.000,0
1749428443.353,15.137,-50.293,-44.434,-9.277,0.000,0
1749428443.357,7.812,-36.133,-44.434,-21.973,0.000,0
1749428443.361,-30.762,-35.156,-54.199,-39.062,0.000,0
1749428443.365,-25.391,-49.316,-51.758,-27.832,0.000,0
1749428443.369,-8.789,-49.805,-41.016,-19.043,0.000,0
1749428443.373,-21.484,-39.551,-40.527,-24.902,0.000,0
1749428443.377,-40.039,-30.273,-44.922,-26.367,0.000,0
1749428443.381,-49.805,-37.109,-48.340,-26.367,0.000,0
1749428443.385,-62.988,-41.992,-47.852,-42.480,0.000,0
1749428443.389,-48.828,-46.387,-40.039,-46.387,0.000,0
1749428443.392,-41.504,-33.691,-41.016,-41.016,0.000,0
1749428443.396,-39.062,-49.805,-41.504,-54.199,0.000,0
1749428443.400,-44.434,-48.340,-41.504,-56.152,0.000,0
1749428443.404,-63.477,-32.715,-41.992,-53.223,0.000,0
1749428443.408,-52.734,-46.875,-40.039,-56.641,0.000,0
1749428443.412,-64.453,-40.039,-44.922,-57.129,0.000,0
1749428443.416,-77.637,-44.922,-38.086,-58.105,0.000,0
1749428443.420,-29.297,-41.992,-29.785,-52.246,0.000,0
1749428443.424,-50.781,-19.531,-33.691,-62.500,0.000,0
1749428443.427,-82.031,-21.973,-35.156,-74.219,0.000,0
1749428443.432,-56.641,-30.273,-31.250,-70.312,0.000,0
1749428443.435,-56.152,-29.297,-26.367,-76.660,0.000,0
1749428443.439,-80.078,-20.020,-19.531,-92.285,0.000,0
1749428443.443,-96.191,-9.277,-18.066,-102.539,0.000,0
1749428443.447,-112.793,1.953,-22.461,-123.047,0.000,0
1749428443.451,-151.367,25.391,-13.184,-144.043,0.000,0
1749428443.455,-161.133,35.645,0.000,-160.645,0.000,0
1749428443.459,-166.504,38.086,6.348,-188.477,0.000,0
1749428443.463,-231.445,76.172,16.602,-236.328,0.000,0
1749428443.467,-266.113,121.582,35.156,-263.672,0.000,0
1749428443.470,-270.020,166.992,45.898,-257.324,0.000,0
1749428443.474,-270.508,199.707,47.363,-263.672,0.000,0
1749428443.478,-245.117,190.918,50.293,-266.113,0.000,0
1749428443.482,-244.629,174.805,56.152,-250.977,0.000,0
1749428443.486,-241.211,164.551,62.988,-232.910,0.000,0
1749428443.490,-198.730,138.672,68.359,-203.613,0.000,0
1749428443.494,-197.754,134.277,56.641,-183.594,0.000,0
1749428443.498,-194.824,106.934,55.664,-156.738,0.000,0
1749428443.502,-155.762,57.617,65.918,-114.746,0.000,0
1749428443.506,-135.254,45.898,55.176,-98.145,0.000,0
1749428443.510,-128.906,28.320,42.969,-89.355,0.000,0
1749428443.513,-99.121,4.395,42.969,-76.172,0.000,0
1749428443.517,-28.809,-7.812,41.992,-38.574,0.000,0
1749428443.521,-4.395,-1.465,31.738,-12.207,0.000,0
1749428443.525,-9.766,5.371,17.090,-16.602,0.000,0
1749428443.529,-12.695,10.254,7.324,-19.531,0.000,0
1749428443.533,19.531,-4.883,0.000,-4.395,0.000,0
1749428443.537,37.109,-1.953,-10.742,9.766,0.000,0
1749428443.541,23.438,1.953,-20.996,10.742,0.000,0
1749428443.545,32.227,-6.836,-33.691,1.465,0.000,0
1749428443.549,34.180,-6.836,-44.434,2.930,0.000,0
1749428443.553,12.695,-5.371,-47.363,18.066,0.000,0
1749428443.556,29.297,-8.301,-48.828,19.531,0.000,0
1749428443.560,55.664,1.465,-55.176,8.301,0.000,0
1749428443.564,41.992,-8.301,-58.105,8.301,0.000,0
1749428443.568,46.875,-23.926,-58.594,26.855,0.000,0
1749428443.572,49.316,-21.973,-61.523,34.180,0.000,0
1749428443.576,39.551,-20.996,-62.012,19.531,0.000,0
1749428443.580,58.105,-22.949,-61.523,20.020,0.000,0
1749428443.584,59.082,-30.762,-60.547,32.227,0.000,0
1749428443.588,61.523,-21.484,-57.617,37.598,0.000,0
1749428443.592,60.547,-22.461,-61.035,33.203,0.000,0
1749428443.596,54.688,-25.879,-65.918,33.691,0.000,0
1749428443.599,67.871,-19.531,-66.895,35.156,0.000,0
1749428443.603,72.266,-22.461,-63.477,39.551,0.000,0
1749428443.607,52.246,-33.203,-64.453,45.410,0.000,0
1749428443.611,51.758,-15.625,-69.824,29.785,0.000,0
1749428443.615,68.359,-15.137,-66.406,35.645,0.000,0
1749428443.619,74.707,-44.434,-56.641,52.246,0.000,0
1749428443.623,58.105,-41.992,-52.734,45.898,0.000,0
1749428443.627,60.059,-34.180,-58.105,41.504,0.000,0
1749428443.631,67.383,-26.367,-62.012,41.992,0.000,0
1749428443.635,54.688,-23.438,-58.594,43.457,0.000,0
1749428443.638,50.293,-36.133,-50.781,37.598,0.000,0
1749428443.642,22.461,-29.785,-55.176,23.926,0.000,0
